Frequency (Hz)	Level (dB)
0.976562	-38.170830
1.953125	-43.169178
2.929688	-41.017296
3.906250	-34.248596
4.882812	-45.708458
5.859375	-46.256123
6.835938	-38.365593
7.812500	-35.516945
8.789062	-45.534988
9.765625	-46.499489
10.742188	-37.631001
11.718750	-39.273758
12.695312	-46.699619
13.671875	-45.524136
14.648438	-37.822193
15.625000	-42.829048
16.601562	-49.239750
17.578125	-43.920082
18.554688	-38.906853
19.531250	-45.354340
20.507812	-48.519432
21.484375	-44.195515
22.460938	-41.698475
23.437500	-48.016541
24.414062	-47.139637
25.390625	-42.740200
26.367188	-42.431843
27.343750	-48.811760
28.320312	-46.774536
29.296875	-45.690807
30.273438	-42.623478
31.250000	-49.206959
32.226562	-46.907337
33.203125	-44.767029
34.179688	-44.677719
35.156250	-48.485447
36.132812	-47.674438
37.109375	-46.598564
38.085938	-44.880859
39.062500	-47.248955
40.039062	-47.010460
41.015625	-44.625080
41.992188	-46.408287
42.968750	-48.447559
43.945312	-47.818153
44.921875	-42.638535
45.898438	-46.620975
46.875000	-48.513393
47.851562	-47.308323
48.828125	-46.011581
49.804688	-48.443714
50.781250	-50.326878
51.757812	-47.953323
52.734375	-48.296612
53.710938	-50.057735
54.687500	-48.781292
55.664062	-47.520618
56.640625	-46.296947
57.617188	-49.897942
58.593750	-47.649540
59.570312	-49.461082
60.546875	-47.863068
61.523438	-51.168087
62.500000	-49.319035
63.476562	-49.099049
64.453125	-48.151264
65.429688	-49.991718
66.406250	-48.671032
67.382812	-48.968277
68.359375	-51.011528
69.335938	-50.668095
70.312500	-49.784363
71.289062	-47.855106
72.265625	-47.488235
73.242188	-50.063557
74.218750	-49.452690
75.195312	-48.902142
76.171875	-49.822823
77.148438	-50.535465
78.125000	-48.176365
79.101562	-47.215492
80.078125	-49.207420
81.054688	-49.865124
82.031250	-50.195145
83.007812	-50.074196
83.984375	-50.977631
84.960938	-51.131748
85.937500	-50.143162
86.914062	-49.541855
87.890625	-50.056667
88.867188	-49.967285
89.843750	-50.217052
90.820312	-51.533203
91.796875	-50.131233
92.773438	-50.849445
93.750000	-49.692261
94.726562	-50.284206
95.703125	-50.157749
96.679688	-50.684574
97.656250	-50.766216
98.632812	-50.941158
99.609375	-50.673889
100.585938	-50.228237
101.562500	-49.050549
102.539062	-49.706123
103.515625	-51.192993
104.492188	-51.607594
105.468750	-48.453835
106.445312	-51.093784
107.421875	-51.024364
108.398438	-51.304211
109.375000	-50.534920
110.351562	-51.447311
111.328125	-51.984524
112.304688	-50.365810
113.281250	-50.391609
114.257812	-51.853325
115.234375	-51.834160
116.210938	-52.233105
117.187500	-52.336452
118.164062	-52.319023
119.140625	-50.989464
120.117188	-51.017189
121.093750	-51.473625
122.070312	-52.246109
123.046875	-52.449451
124.023438	-49.744503
125.000000	-49.245029
125.976562	-52.020416
126.953125	-50.866882
127.929688	-49.124027
128.906250	-50.610161
129.882812	-51.555180
130.859375	-49.427776
131.835938	-49.514210
132.812500	-50.368515
133.789062	-50.526733
134.765625	-50.348022
135.742188	-46.956608
136.718750	-51.254143
137.695312	-50.502750
138.671875	-49.007458
139.648438	-50.350266
140.625000	-50.867603
141.601562	-52.072918
142.578125	-48.778400
143.554688	-49.724937
144.531250	-50.854469
145.507812	-50.414139
146.484375	-48.462650
147.460938	-49.005703
148.437500	-50.235432
149.414062	-50.711079
150.390625	-51.246922
151.367188	-50.257656
152.343750	-50.967712
153.320312	-49.886700
154.296875	-49.412567
155.273438	-49.054626
156.250000	-49.977398
157.226562	-49.366108
158.203125	-50.647701
159.179688	-50.496109
160.156250	-50.174370
161.132812	-50.480328
162.109375	-50.615921
163.085938	-49.137604
164.062500	-49.307957
165.039062	-49.680744
166.015625	-49.355347
166.992188	-49.088638
167.968750	-51.294010
168.945312	-49.738365
169.921875	-48.986870
170.898438	-49.693935
171.875000	-50.177013
172.851562	-47.927090
173.828125	-47.037918
174.804688	-50.894840
175.781250	-50.173752
176.757812	-47.009624
177.734375	-48.182110
178.710938	-50.134766
179.687500	-46.772045
180.664062	-43.622746
181.640625	-45.238102
182.617188	-46.918045
183.593750	-42.293884
184.570312	-40.392685
185.546875	-44.933315
186.523438	-45.563522
187.500000	-40.039211
188.476562	-44.898842
189.453125	-48.365864
190.429688	-47.393219
191.406250	-45.341469
192.382812	-49.486816
193.359375	-50.129429
194.335938	-47.727142
195.312500	-47.010082
196.289062	-48.963703
197.265625	-50.263229
198.242188	-48.086914
199.218750	-50.533409
200.195312	-52.504314
201.171875	-50.617687
202.148438	-48.710083
203.125000	-49.908096
204.101562	-52.770256
205.078125	-52.068401
206.054688	-48.517250
207.031250	-51.384624
208.007812	-51.728298
208.984375	-51.216187
209.960938	-50.220036
210.937500	-51.881264
211.914062	-50.945793
212.890625	-50.885208
213.867188	-50.528992
214.843750	-51.218754
215.820312	-51.876762
216.796875	-51.492100
217.773438	-52.190472
218.750000	-51.678062
219.726562	-50.839535
220.703125	-50.182632
221.679688	-51.910137
222.656250	-52.810165
223.632812	-52.113216
224.609375	-51.270679
225.585938	-50.673141
226.562500	-52.090054
227.539062	-51.827126
228.515625	-51.402451
229.492188	-52.481361
230.468750	-52.666603
231.445312	-52.247463
232.421875	-52.075066
233.398438	-53.300907
234.375000	-53.609947
235.351562	-53.661282
236.328125	-51.564716
237.304688	-52.605198
238.281250	-52.946789
239.257812	-53.155670
240.234375	-53.200203
241.210938	-54.332260
242.187500	-52.936619
243.164062	-53.345284
244.140625	-52.978432
245.117188	-53.245815
246.093750	-53.642014
247.070312	-54.448971
248.046875	-53.241547
249.023438	-53.702221
250.000000	-52.663132
250.976562	-53.436470
251.953125	-54.495892
252.929688	-52.944595
253.906250	-53.693523
254.882812	-53.743767
255.859375	-53.839489
256.835938	-53.285450
257.812500	-52.952717
258.789062	-55.233608
259.765625	-53.450264
260.742188	-53.513958
261.718750	-54.859028
262.695312	-55.121483
263.671875	-54.488525
264.648438	-54.165588
265.625000	-55.254719
266.601562	-53.120647
267.578125	-54.346649
268.554688	-52.630623
269.531250	-55.180935
270.507812	-54.493397
271.484375	-54.387772
272.460938	-54.547066
273.437500	-53.145248
274.414062	-54.966984
275.390625	-54.635902
276.367188	-55.578476
277.343750	-54.215900
278.320312	-53.279888
279.296875	-54.298603
280.273438	-54.720634
281.250000	-54.983837
282.226562	-54.630009
283.203125	-53.795597
284.179688	-54.240585
285.156250	-55.522083
286.132812	-54.615719
287.109375	-54.245182
288.085938	-53.737194
289.062500	-54.156490
290.039062	-53.931355
291.015625	-55.641167
291.992188	-54.574821
292.968750	-54.095772
293.945312	-53.689835
294.921875	-53.441921
295.898438	-53.902824
296.875000	-55.093822
297.851562	-53.476917
298.828125	-54.987732
299.804688	-53.767921
300.781250	-52.933220
301.757812	-52.804947
302.734375	-55.786430
303.710938	-54.346382
304.687500	-53.133453
305.664062	-53.427727
306.640625	-54.155457
307.617188	-53.123569
308.593750	-53.340694
309.570312	-53.253506
310.546875	-53.945637
311.523438	-52.954155
312.500000	-53.994286
313.476562	-54.782127
314.453125	-54.681328
315.429688	-53.051102
316.406250	-54.471214
317.382812	-53.235935
318.359375	-53.117573
319.335938	-53.018181
320.312500	-53.812637
321.289062	-54.538559
322.265625	-52.493748
323.242188	-51.859802
324.218750	-52.614197
325.195312	-53.352852
326.171875	-51.478256
327.148438	-52.683048
328.125000	-52.436047
329.101562	-51.893284
330.078125	-52.565239
331.054688	-52.729946
332.031250	-53.646431
333.007812	-52.440819
333.984375	-51.066216
334.960938	-52.465488
335.937500	-52.349247
336.914062	-52.695213
337.890625	-52.154865
338.867188	-52.556404
339.843750	-52.895386
340.820312	-51.820339
341.796875	-50.882591
342.773438	-51.901993
343.750000	-50.331814
344.726562	-51.587341
345.703125	-52.519730
346.679688	-52.427235
347.656250	-50.970562
348.632812	-51.967407
349.609375	-52.370640
350.585938	-51.758499
351.562500	-50.248608
352.539062	-47.836548
353.515625	-51.442093
354.492188	-51.720051
355.468750	-48.639984
356.445312	-50.072865
357.421875	-50.094246
358.398438	-47.812901
359.375000	-49.263836
360.351562	-48.366371
361.328125	-48.289936
362.304688	-45.871384
363.281250	-45.885147
364.257812	-44.736919
365.234375	-43.854187
366.210938	-47.370922
367.187500	-47.873165
368.164062	-49.155430
369.140625	-48.271645
370.117188	-48.717815
371.093750	-50.859318
372.070312	-47.453671
373.046875	-49.339554
374.023438	-51.359150
375.000000	-51.228024
375.976562	-52.158333
376.953125	-52.431492
377.929688	-52.250378
378.906250	-50.823868
379.882812	-51.732040
380.859375	-51.549885
381.835938	-53.082256
382.812500	-52.703156
383.789062	-52.490925
384.765625	-53.634933
385.742188	-52.083927
386.718750	-52.030754
387.695312	-52.907951
388.671875	-53.184109
389.648438	-53.111023
390.625000	-52.262280
391.601562	-52.415104
392.578125	-53.364197
393.554688	-52.763214
394.531250	-53.390182
395.507812	-52.475670
396.484375	-53.275002
397.460938	-51.737705
398.437500	-52.590084
399.414062	-53.230247
400.390625	-53.993923
401.367188	-52.895809
402.343750	-53.287525
403.320312	-53.144600
404.296875	-53.761593
405.273438	-52.507042
406.250000	-51.946892
407.226562	-52.257641
408.203125	-54.575703
409.179688	-53.524567
410.156250	-53.471741
411.132812	-53.409737
412.109375	-54.483650
413.085938	-54.947163
414.062500	-54.001209
415.039062	-54.293171
416.015625	-54.237717
416.992188	-54.537544
417.968750	-53.858551
418.945312	-54.033382
419.921875	-54.224396
420.898438	-54.521214
421.875000	-54.103271
422.851562	-55.455753
423.828125	-54.026131
424.804688	-54.695015
425.781250	-54.174625
426.757812	-55.253803
427.734375	-55.671101
428.710938	-54.961369
429.687500	-54.746635
430.664062	-56.280884
431.640625	-55.078411
432.617188	-54.166840
433.593750	-55.427479
434.570312	-55.421242
435.546875	-55.506485
436.523438	-55.637421
437.500000	-55.695160
438.476562	-54.856861
439.453125	-55.402454
440.429688	-54.739872
441.406250	-54.901279
442.382812	-55.681705
443.359375	-55.410610
444.335938	-55.591473
445.312500	-55.316410
446.289062	-55.472244
447.265625	-55.687527
448.242188	-56.233318
449.218750	-55.704735
450.195312	-55.701851
451.171875	-55.105732
452.148438	-56.279659
453.125000	-55.017639
454.101562	-55.091125
455.078125	-55.192631
456.054688	-53.449394
457.031250	-54.626305
458.007812	-53.712124
458.984375	-54.572388
459.960938	-55.097092
460.937500	-55.158840
461.914062	-54.825249
462.890625	-55.611732
463.867188	-54.446602
464.843750	-53.928726
465.820312	-53.724117
466.796875	-53.944412
467.773438	-56.082561
468.750000	-55.276608
469.726562	-53.123653
470.703125	-53.370724
471.679688	-54.373192
472.656250	-55.286125
473.632812	-54.080151
474.609375	-52.920692
475.585938	-53.975590
476.562500	-53.320168
477.539062	-54.136791
478.515625	-54.233585
479.492188	-53.653545
480.468750	-54.487610
481.445312	-53.235733
482.421875	-53.168175
483.398438	-54.065022
484.375000	-54.888302
485.351562	-53.988319
486.328125	-53.757038
487.304688	-55.033077
488.281250	-53.911808
489.257812	-51.994698
490.234375	-52.993305
491.210938	-53.735428
492.187500	-52.188145
493.164062	-53.941181
494.140625	-53.681034
495.117188	-53.082233
496.093750	-52.172005
497.070312	-53.110191
498.046875	-52.335964
499.023438	-51.169319
500.000000	-51.530479
500.976562	-52.049149
501.953125	-53.754150
502.929688	-51.873840
503.906250	-51.377842
504.882812	-53.676785
505.859375	-51.881687
506.835938	-52.869339
507.812500	-52.277885
508.789062	-54.429626
509.765625	-52.368835
510.742188	-50.839706
511.718750	-51.077496
512.695312	-50.261337
513.671875	-51.809052
514.648438	-49.792568
515.625000	-54.457001
516.601562	-52.281254
517.578125	-51.343067
518.554688	-50.351204
519.531250	-52.825005
520.507812	-52.402035
521.484375	-53.096973
522.460938	-51.584583
523.437500	-51.209965
524.414062	-51.758499
525.390625	-50.114182
526.367188	-48.347580
527.343750	-49.772106
528.320312	-48.304665
529.296875	-50.603184
530.273438	-49.657253
531.250000	-49.144100
532.226562	-48.321987
533.203125	-48.710800
534.179688	-48.881107
535.156250	-47.317158
536.132812	-48.639412
537.109375	-49.232746
538.085938	-48.295853
539.062500	-49.207844
540.039062	-48.158562
541.015625	-48.816853
541.992188	-46.665783
542.968750	-47.441826
543.945312	-45.492188
544.921875	-43.921612
545.898438	-42.709782
546.875000	-46.120335
547.851562	-44.013653
548.828125	-45.341366
549.804688	-46.336987
550.781250	-47.001282
551.757812	-46.717690
552.734375	-44.957485
553.710938	-47.356567
554.687500	-46.914028
555.664062	-47.598713
556.640625	-48.015743
557.617188	-49.942917
558.593750	-48.936878
559.570312	-50.052166
560.546875	-49.418228
561.523438	-52.246567
562.500000	-52.192451
563.476562	-51.380634
564.453125	-50.792789
565.429688	-52.290340
566.406250	-51.868580
567.382812	-51.564919
568.359375	-50.506397
569.335938	-49.729809
570.312500	-50.689987
571.289062	-51.339993
572.265625	-52.922939
573.242188	-51.997757
574.218750	-53.040726
575.195312	-52.972851
576.171875	-54.742649
577.148438	-52.600777
578.125000	-52.587414
579.101562	-53.106842
580.078125	-52.175331
581.054688	-52.534348
582.031250	-50.693737
583.007812	-52.594990
583.984375	-52.736423
584.960938	-52.041016
585.937500	-52.135548
586.914062	-51.462925
587.890625	-52.233936
588.867188	-54.107964
589.843750	-52.793362
590.820312	-52.555542
591.796875	-54.470978
592.773438	-53.316940
593.750000	-52.817451
594.726562	-53.015297
595.703125	-54.118359
596.679688	-54.514908
597.656250	-53.739220
598.632812	-52.272198
599.609375	-53.800793
600.585938	-53.303898
601.562500	-54.835117
602.539062	-53.569809
603.515625	-54.494854
604.492188	-53.735775
605.468750	-54.209793
606.445312	-53.662613
607.421875	-53.543148
608.398438	-53.451759
609.375000	-54.501205
610.351562	-53.537205
611.328125	-53.911774
612.304688	-54.674923
613.281250	-55.206333
614.257812	-53.679497
615.234375	-54.837479
616.210938	-54.189716
617.187500	-53.874798
618.164062	-53.717709
619.140625	-54.939266
620.117188	-54.736538
621.093750	-54.634140
622.070312	-53.995041
623.046875	-52.564171
624.023438	-54.580837
625.000000	-54.668346
625.976562	-52.778984
626.953125	-54.916889
627.929688	-54.278385
628.906250	-55.007156
629.882812	-52.841583
630.859375	-54.193993
631.835938	-53.674850
632.812500	-54.661877
633.789062	-53.732010
634.765625	-53.566700
635.742188	-54.231850
636.718750	-54.251690
637.695312	-54.590263
638.671875	-53.667198
639.648438	-53.997063
640.625000	-55.226452
641.601562	-54.611565
642.578125	-55.829395
643.554688	-53.060654
644.531250	-53.800407
645.507812	-52.660114
646.484375	-53.458420
647.460938	-52.719170
648.437500	-55.264187
649.414062	-54.216526
650.390625	-53.609970
651.367188	-52.114372
652.343750	-52.281418
653.320312	-53.500153
654.296875	-53.200329
655.273438	-52.980335
656.250000	-55.348083
657.226562	-53.952518
658.203125	-53.669125
659.179688	-51.440815
660.156250	-50.846287
661.132812	-50.559135
662.109375	-50.292656
663.085938	-48.772572
664.062500	-51.354408
665.039062	-49.910339
666.015625	-51.977711
666.992188	-51.504589
667.968750	-52.285297
668.945312	-51.535667
669.921875	-50.089241
670.898438	-52.052135
671.875000	-48.247505
672.851562	-50.389935
673.828125	-51.219704
674.804688	-51.388527
675.781250	-50.464981
676.757812	-51.611088
677.734375	-50.248158
678.710938	-49.136230
679.687500	-48.332916
680.664062	-48.675797
681.640625	-48.276031
682.617188	-47.048840
683.593750	-47.015438
684.570312	-48.520027
685.546875	-44.708805
686.523438	-45.626778
687.500000	-45.555592
688.476562	-47.427959
689.453125	-47.139118
690.429688	-46.768509
691.406250	-46.372250
692.382812	-47.720173
693.359375	-45.908653
694.335938	-44.387730
695.312500	-46.624638
696.289062	-43.943565
697.265625	-44.709846
698.242188	-45.021141
699.218750	-46.823734
700.195312	-45.602890
701.171875	-46.351330
702.148438	-46.978027
703.125000	-46.877102
704.101562	-48.018131
705.078125	-46.914944
706.054688	-47.446045
707.031250	-45.105858
708.007812	-44.700157
708.984375	-47.995930
709.960938	-46.091690
710.937500	-43.857033
711.914062	-44.762428
712.890625	-47.543007
713.867188	-44.684986
714.843750	-40.993362
715.820312	-42.718246
716.796875	-43.650196
717.773438	-41.986107
718.750000	-40.671146
719.726562	-39.020351
720.703125	-41.703896
721.679688	-37.086441
722.656250	-44.475029
723.632812	-38.885292
724.609375	-37.156193
725.585938	-39.716827
726.562500	-40.277798
727.539062	-38.401814
728.515625	-35.463314
729.492188	-39.305161
730.468750	-39.842377
731.445312	-36.555061
732.421875	-38.725796
733.398438	-41.297657
734.375000	-38.543705
735.351562	-37.021492
736.328125	-40.217346
737.304688	-38.690903
738.281250	-39.767258
739.257812	-41.533310
740.234375	-39.290470
741.210938	-41.757843
742.187500	-41.414989
743.164062	-43.345497
744.140625	-48.158455
745.117188	-46.180542
746.093750	-47.434307
747.070312	-47.531281
748.046875	-48.848309
749.023438	-51.095280
750.000000	-48.614002
750.976562	-47.980106
751.953125	-49.818356
752.929688	-47.600170
753.906250	-48.494965
754.882812	-50.597523
755.859375	-47.226486
756.835938	-46.895664
757.812500	-49.678783
758.789062	-49.481098
759.765625	-47.357536
760.742188	-49.771496
761.718750	-49.814793
762.695312	-50.031219
763.671875	-49.982246
764.648438	-50.311481
765.625000	-50.741276
766.601562	-50.455631
767.578125	-50.289516
768.554688	-50.533108
769.531250	-51.531773
770.507812	-50.970287
771.484375	-50.532097
772.460938	-52.391022
773.437500	-51.043011
774.414062	-51.119743
775.390625	-49.964172
776.367188	-49.327568
777.343750	-48.353764
778.320312	-50.324078
779.296875	-50.235008
780.273438	-51.236214
781.250000	-51.110661
782.226562	-50.358330
783.203125	-50.930756
784.179688	-52.486256
785.156250	-50.870785
786.132812	-52.286079
787.109375	-51.587387
788.085938	-51.532452
789.062500	-50.750019
790.039062	-51.087830
791.015625	-52.000854
791.992188	-50.077930
792.968750	-50.805355
793.945312	-51.576336
794.921875	-51.367008
795.898438	-52.120136
796.875000	-52.588394
797.851562	-52.141464
798.828125	-50.831615
799.804688	-50.950851
800.781250	-51.104012
801.757812	-51.399868
802.734375	-51.287762
803.710938	-51.551758
804.687500	-51.156284
805.664062	-51.326157
806.640625	-50.033806
807.617188	-51.149014
808.593750	-51.418247
809.570312	-52.424183
810.546875	-51.057690
811.523438	-50.693867
812.500000	-51.761902
813.476562	-51.391953
814.453125	-50.486809
815.429688	-50.077168
816.406250	-49.505337
817.382812	-50.314819
818.359375	-50.581238
819.335938	-50.540279
820.312500	-49.728214
821.289062	-50.757603
822.265625	-50.250111
823.242188	-50.151093
824.218750	-49.572750
825.195312	-49.468491
826.171875	-49.404167
827.148438	-50.091873
828.125000	-48.818306
829.101562	-47.845978
830.078125	-49.704834
831.054688	-47.768608
832.031250	-48.993454
833.007812	-49.394730
833.984375	-47.701305
834.960938	-48.484562
835.937500	-46.950123
836.914062	-47.469742
837.890625	-47.185791
838.867188	-47.460213
839.843750	-47.520557
840.820312	-48.123856
841.796875	-47.314487
842.773438	-44.688244
843.750000	-46.288940
844.726562	-45.119339
845.703125	-47.971756
846.679688	-46.483486
847.656250	-47.398872
848.632812	-47.701096
849.609375	-48.837357
850.585938	-47.223377
851.562500	-49.061478
852.539062	-46.179764
853.515625	-45.890228
854.492188	-44.093189
855.468750	-43.737362
856.445312	-44.728107
857.421875	-43.496349
858.398438	-46.460941
859.375000	-44.094978
860.351562	-45.100933
861.328125	-44.140289
862.304688	-44.401482
863.281250	-44.293350
864.257812	-42.957386
865.234375	-43.574612
866.210938	-44.679783
867.187500	-42.360405
868.164062	-40.656429
869.140625	-40.885502
870.117188	-41.360870
871.093750	-38.121189
872.070312	-39.065880
873.046875	-39.918423
874.023438	-41.133427
875.000000	-35.836464
875.976562	-38.879570
876.953125	-35.829182
877.929688	-37.058117
878.906250	-39.222908
879.882812	-36.050270
880.859375	-36.032089
881.835938	-37.318459
882.812500	-33.230923
883.789062	-36.433632
884.765625	-40.261414
885.742188	-33.468670
886.718750	-34.117702
887.695312	-35.250881
888.671875	-32.849197
889.648438	-35.300907
890.625000	-34.568165
891.601562	-31.928043
892.578125	-32.877419
893.554688	-30.896778
894.531250	-33.523842
895.507812	-33.484303
896.484375	-31.628086
897.460938	-30.358566
898.437500	-31.105988
899.414062	-31.089401
900.390625	-32.148979
901.367188	-30.386278
902.343750	-31.654947
903.320312	-29.143599
904.296875	-28.989233
905.273438	-32.137722
906.250000	-32.042225
907.226562	-31.183653
908.203125	-28.996586
909.179688	-32.146999
910.156250	-29.456848
911.132812	-31.409515
912.109375	-30.381626
913.085938	-30.965830
914.062500	-30.233204
915.039062	-31.768368
916.015625	-32.961430
916.992188	-30.557447
917.968750	-31.611847
918.945312	-34.033482
919.921875	-33.534554
920.898438	-32.091217
921.875000	-35.814571
922.851562	-35.187996
923.828125	-35.890007
924.804688	-34.407341
925.781250	-34.765713
926.757812	-38.591366
927.734375	-37.028717
928.710938	-35.338734
929.687500	-36.851254
930.664062	-38.744709
931.640625	-35.826698
932.617188	-37.345638
933.593750	-40.819832
934.570312	-39.471195
935.546875	-38.357990
936.523438	-40.063747
937.500000	-42.098442
938.476562	-39.657257
939.453125	-39.487656
940.429688	-41.936787
941.406250	-42.292130
942.382812	-40.043911
943.359375	-42.603889
944.335938	-42.837856
945.312500	-40.611259
946.289062	-41.734688
947.265625	-41.164139
948.242188	-42.937290
949.218750	-39.842800
950.195312	-40.037640
951.171875	-40.723137
952.148438	-42.436623
953.125000	-41.717140
954.101562	-41.738338
955.078125	-44.812134
956.054688	-42.029709
957.031250	-43.899658
958.007812	-42.619026
958.984375	-43.117722
959.960938	-43.326508
960.937500	-43.747814
961.914062	-41.736526
962.890625	-42.228840
963.867188	-43.706188
964.843750	-41.121933
965.820312	-45.277157
966.796875	-43.881989
967.773438	-45.024414
968.750000	-43.481976
969.726562	-42.492226
970.703125	-41.459778
971.679688	-39.007751
972.656250	-42.330624
973.632812	-40.535698
974.609375	-40.576210
975.585938	-42.182816
976.562500	-42.985725
977.539062	-43.383137
978.515625	-44.890942
979.492188	-43.964359
980.468750	-44.649403
981.445312	-44.962498
982.421875	-45.306950
983.398438	-44.772121
984.375000	-44.032028
985.351562	-43.612751
986.328125	-42.907536
987.304688	-42.891651
988.281250	-43.470787
989.257812	-43.535419
990.234375	-42.571239
991.210938	-42.268600
992.187500	-41.125446
993.164062	-42.580036
994.140625	-42.554592
995.117188	-41.173954
996.093750	-43.296288
997.070312	-41.146416
998.046875	-41.035625
999.023438	-42.287605
1000.000000	-42.098141
1000.976562	-42.740772
1001.953125	-41.365391
1002.929688	-42.558506
1003.906250	-41.333221
1004.882812	-41.610088
1005.859375	-42.797600
1006.835938	-42.664330
1007.812500	-41.041351
1008.789062	-41.790791
1009.765625	-41.669552
1010.742188	-42.127438
1011.718750	-40.804935
1012.695312	-41.622883
1013.671875	-40.722843
1014.648438	-43.370178
1015.625000	-41.021412
1016.601562	-39.832653
1017.578125	-41.003368
1018.554688	-39.380184
1019.531250	-41.325630
1020.507812	-37.799397
1021.484375	-39.330402
1022.460938	-41.249420
1023.437500	-37.220493
1024.414062	-38.679649
1025.390625	-39.044422
1026.367188	-38.534111
1027.343750	-37.629345
1028.320312	-38.408344
1029.296875	-35.486725
1030.273438	-35.237160
1031.250000	-34.876656
1032.226562	-34.628418
1033.203125	-34.355499
1034.179688	-31.426296
1035.156250	-32.990601
1036.132812	-33.416592
1037.109375	-29.930845
1038.085938	-33.449638
1039.062500	-30.304899
1040.039062	-32.594841
1041.015625	-33.004803
1041.992188	-28.519802
1042.968750	-27.866598
1043.945312	-31.256464
1044.921875	-33.175835
1045.898438	-30.483326
1046.875000	-32.159641
1047.851562	-29.838543
1048.828125	-27.951887
1049.804688	-27.929846
1050.781250	-28.938766
1051.757812	-30.995152
1052.734375	-29.062752
1053.710938	-28.565048
1054.687500	-29.532925
1055.664062	-28.651711
1056.640625	-28.027893
1057.617188	-26.509287
1058.593750	-28.623575
1059.570312	-29.050301
1060.546875	-27.158995
1061.523438	-25.609989
1062.500000	-25.578806
1063.476562	-25.112364
1064.453125	-22.151560
1065.429688	-23.926813
1066.406250	-23.870461
1067.382812	-25.672482
1068.359375	-24.370457
1069.335938	-25.469955
1070.312500	-25.991270
1071.289062	-26.009230
1072.265625	-25.630322
1073.242188	-23.666782
1074.218750	-24.411690
1075.195312	-24.248644
1076.171875	-25.921436
1077.148438	-23.775282
1078.125000	-23.117010
1079.101562	-22.858086
1080.078125	-22.411516
1081.054688	-21.425379
1082.031250	-20.263515
1083.007812	-21.495562
1083.984375	-19.678175
1084.960938	-19.958607
1085.937500	-18.983583
1086.914062	-18.938309
1087.890625	-17.725218
1088.867188	-17.035341
1089.843750	-17.384445
1090.820312	-17.130878
1091.796875	-16.238356
1092.773438	-16.346859
1093.750000	-17.442312
1094.726562	-16.663797
1095.703125	-16.472818
1096.679688	-16.549633
1097.656250	-16.511480
1098.632812	-16.925550
1099.609375	-16.017464
1100.585938	-15.306117
1101.562500	-14.742403
1102.539062	-16.272581
1103.515625	-15.742008
1104.492188	-14.681620
1105.468750	-14.796839
1106.445312	-16.409966
1107.421875	-15.672550
1108.398438	-15.508986
1109.375000	-16.030369
1110.351562	-16.432737
1111.328125	-15.882981
1112.304688	-16.045292
1113.281250	-17.392494
1114.257812	-16.428293
1115.234375	-16.446472
1116.210938	-16.639641
1117.187500	-16.990116
1118.164062	-17.217300
1119.140625	-16.784555
1120.117188	-15.940094
1121.093750	-16.906530
1122.070312	-17.546152
1123.046875	-16.756254
1124.023438	-16.637447
1125.000000	-16.994490
1125.976562	-17.047050
1126.953125	-16.779690
1127.929688	-17.363991
1128.906250	-17.199661
1129.882812	-17.273905
1130.859375	-17.350998
1131.835938	-17.556606
1132.812500	-17.748667
1133.789062	-18.782476
1134.765625	-17.756830
1135.742188	-17.957468
1136.718750	-18.052416
1137.695312	-18.942696
1138.671875	-18.873013
1139.648438	-20.833540
1140.625000	-19.644722
1141.601562	-19.145512
1142.578125	-21.318745
1143.554688	-20.124926
1144.531250	-21.103571
1145.507812	-21.382063
1146.484375	-23.036495
1147.460938	-21.058310
1148.437500	-22.099024
1149.414062	-22.256721
1150.390625	-23.128908
1151.367188	-23.470856
1152.343750	-24.414602
1153.320312	-24.995905
1154.296875	-24.181284
1155.273438	-26.360945
1156.250000	-27.304825
1157.226562	-25.702744
1158.203125	-27.773161
1159.179688	-27.395437
1160.156250	-30.107237
1161.132812	-30.383362
1162.109375	-30.004908
1163.085938	-33.036671
1164.062500	-30.377827
1165.039062	-31.363804
1166.015625	-32.566681
1166.992188	-33.351864
1167.968750	-32.439976
1168.945312	-32.174252
1169.921875	-33.845257
1170.898438	-35.779026
1171.875000	-33.642105
1172.851562	-34.898945
1173.828125	-35.349659
1174.804688	-36.917515
1175.781250	-36.593002
1176.757812	-34.880840
1177.734375	-38.095169
1178.710938	-36.401031
1179.687500	-37.114006
1180.664062	-37.398926
1181.640625	-37.817528
1182.617188	-38.671223
1183.593750	-37.547771
1184.570312	-39.511124
1185.546875	-39.434261
1186.523438	-39.549023
1187.500000	-39.210274
1188.476562	-40.720882
1189.453125	-38.489578
1190.429688	-40.131367
1191.406250	-39.422508
1192.382812	-42.031509
1193.359375	-41.440346
1194.335938	-41.003574
1195.312500	-42.388405
1196.289062	-40.596889
1197.265625	-42.686249
1198.242188	-40.439728
1199.218750	-40.859375
1200.195312	-41.755283
1201.171875	-41.330650
1202.148438	-42.895721
1203.125000	-42.827343
1204.101562	-43.324966
1205.078125	-42.944580
1206.054688	-42.650974
1207.031250	-44.378674
1208.007812	-44.394150
1208.984375	-43.441181
1209.960938	-44.793880
1210.937500	-44.609592
1211.914062	-43.489773
1212.890625	-44.146858
1213.867188	-44.755379
1214.843750	-45.238594
1215.820312	-44.506390
1216.796875	-45.374554
1217.773438	-45.543766
1218.750000	-44.252216
1219.726562	-44.677933
1220.703125	-46.209446
1221.679688	-43.300259
1222.656250	-44.520802
1223.632812	-44.030724
1224.609375	-44.274914
1225.585938	-44.089474
1226.562500	-42.997261
1227.539062	-43.615662
1228.515625	-43.342201
1229.492188	-42.445435
1230.468750	-44.651676
1231.445312	-43.876217
1232.421875	-43.882015
1233.398438	-43.264931
1234.375000	-44.189911
1235.351562	-45.073147
1236.328125	-44.067673
1237.304688	-42.887543
1238.281250	-43.501480
1239.257812	-42.142067
1240.234375	-42.235298
1241.210938	-40.747520
1242.187500	-42.711399
1243.164062	-41.626846
1244.140625	-40.123627
1245.117188	-41.860420
1246.093750	-41.371944
1247.070312	-42.818611
1248.046875	-40.532925
1249.023438	-41.234398
1250.000000	-42.532520
1250.976562	-40.636868
1251.953125	-39.604206
1252.929688	-40.992184
1253.906250	-40.840118
1254.882812	-40.564697
1255.859375	-41.224098
1256.835938	-41.426311
1257.812500	-41.681324
1258.789062	-40.219921
1259.765625	-39.746498
1260.742188	-40.977474
1261.718750	-41.062164
1262.695312	-39.278805
1263.671875	-39.586983
1264.648438	-39.762150
1265.625000	-38.957626
1266.601562	-37.103001
1267.578125	-37.378784
1268.554688	-37.956467
1269.531250	-38.473396
1270.507812	-37.965282
1271.484375	-36.666164
1272.460938	-37.992603
1273.437500	-37.105080
1274.414062	-34.472454
1275.390625	-36.434227
1276.367188	-36.900715
1277.343750	-37.292061
1278.320312	-35.195415
1279.296875	-36.447086
1280.273438	-33.630138
1281.250000	-35.664055
1282.226562	-37.482567
1283.203125	-35.699982
1284.179688	-35.621071
1285.156250	-35.477913
1286.132812	-34.203091
1287.109375	-35.912567
1288.085938	-36.782887
1289.062500	-37.284382
1290.039062	-35.620255
1291.015625	-36.342567
1291.992188	-38.006893
1292.968750	-37.769863
1293.945312	-36.783337
1294.921875	-38.196621
1295.898438	-38.671852
1296.875000	-37.198997
1297.851562	-38.205463
1298.828125	-38.129757
1299.804688	-39.868481
1300.781250	-37.671619
1301.757812	-39.191826
1302.734375	-40.332081
1303.710938	-40.158939
1304.687500	-40.969238
1305.664062	-41.027950
1306.640625	-41.354851
1307.617188	-39.618069
1308.593750	-38.989933
1309.570312	-41.312412
1310.546875	-41.032467
1311.523438	-40.340698
1312.500000	-40.952599
1313.476562	-42.048740
1314.453125	-43.999653
1315.429688	-42.646481
1316.406250	-42.984180
1317.382812	-43.611294
1318.359375	-43.241577
1319.335938	-42.498665
1320.312500	-44.594570
1321.289062	-45.193520
1322.265625	-44.534306
1323.242188	-43.421593
1324.218750	-46.004837
1325.195312	-46.057079
1326.171875	-46.248558
1327.148438	-45.718224
1328.125000	-45.481514
1329.101562	-45.338440
1330.078125	-44.325031
1331.054688	-47.605438
1332.031250	-45.961708
1333.007812	-47.125511
1333.984375	-47.175732
1334.960938	-46.744179
1335.937500	-47.200191
1336.914062	-47.735798
1337.890625	-47.414383
1338.867188	-48.126060
1339.843750	-48.487656
1340.820312	-48.105061
1341.796875	-46.966648
1342.773438	-47.910793
1343.750000	-48.148975
1344.726562	-49.459599
1345.703125	-47.418854
1346.679688	-48.772327
1347.656250	-48.420742
1348.632812	-48.487305
1349.609375	-48.177048
1350.585938	-48.554958
1351.562500	-48.895672
1352.539062	-48.398312
1353.515625	-48.418816
1354.492188	-48.755810
1355.468750	-49.256153
1356.445312	-48.848232
1357.421875	-49.648270
1358.398438	-49.696472
1359.375000	-49.785645
1360.351562	-48.994667
1361.328125	-49.448956
1362.304688	-50.462837
1363.281250	-50.803043
1364.257812	-50.027821
1365.234375	-50.014893
1366.210938	-49.735718
1367.187500	-50.376511
1368.164062	-49.811565
1369.140625	-50.005363
1370.117188	-50.900143
1371.093750	-51.070000
1372.070312	-49.927052
1373.046875	-50.348698
1374.023438	-51.737385
1375.000000	-50.007057
1375.976562	-50.311382
1376.953125	-51.277084
1377.929688	-51.474277
1378.906250	-50.288067
1379.882812	-50.477757
1380.859375	-50.401367
1381.835938	-49.931828
1382.812500	-51.096218
1383.789062	-51.161148
1384.765625	-49.455902
1385.742188	-50.496395
1386.718750	-50.011795
1387.695312	-51.086395
1388.671875	-51.026615
1389.648438	-50.168129
1390.625000	-51.384071
1391.601562	-50.562866
1392.578125	-52.712971
1393.554688	-50.883034
1394.531250	-51.026058
1395.507812	-51.587822
1396.484375	-50.392303
1397.460938	-51.094082
1398.437500	-50.802788
1399.414062	-50.216957
1400.390625	-51.547913
1401.367188	-52.086506
1402.343750	-52.118904
1403.320312	-51.718071
1404.296875	-51.762791
1405.273438	-51.711807
1406.250000	-51.502575
1407.226562	-51.395565
1408.203125	-51.273319
1409.179688	-50.679707
1410.156250	-52.419476
1411.132812	-51.604805
1412.109375	-50.536999
1413.085938	-51.481400
1414.062500	-51.551609
1415.039062	-50.694523
1416.015625	-50.431934
1416.992188	-48.555099
1417.968750	-50.531727
1418.945312	-49.343822
1419.921875	-50.012432
1420.898438	-48.219097
1421.875000	-48.960323
1422.851562	-49.479034
1423.828125	-49.539387
1424.804688	-49.517616
1425.781250	-48.655514
1426.757812	-48.665573
1427.734375	-49.135952
1428.710938	-48.741928
1429.687500	-47.474628
1430.664062	-48.352306
1431.640625	-48.197708
1432.617188	-47.065662
1433.593750	-49.609055
1434.570312	-48.803722
1435.546875	-47.498009
1436.523438	-46.687199
1437.500000	-47.833221
1438.476562	-49.937542
1439.453125	-47.250854
1440.429688	-48.139530
1441.406250	-49.517559
1442.382812	-48.431103
1443.359375	-46.028564
1444.335938	-45.382217
1445.312500	-46.684856
1446.289062	-45.352070
1447.265625	-45.048340
1448.242188	-46.449806
1449.218750	-46.260643
1450.195312	-46.265831
1451.171875	-44.745621
1452.148438	-44.619598
1453.125000	-43.748329
1454.101562	-44.379662
1455.078125	-45.068024
1456.054688	-44.959156
1457.031250	-44.430916
1458.007812	-41.500546
1458.984375	-41.863926
1459.960938	-42.941525
1460.937500	-42.887207
1461.914062	-43.223991
1462.890625	-43.237865
1463.867188	-42.289883
1464.843750	-40.453537
1465.820312	-41.564140
1466.796875	-42.772396
1467.773438	-43.327461
1468.750000	-41.445366
1469.726562	-41.474663
1470.703125	-42.166348
1471.679688	-43.384285
1472.656250	-43.828995
1473.632812	-42.395073
1474.609375	-42.818264
1475.585938	-46.336769
1476.562500	-45.764587
1477.539062	-46.805195
1478.515625	-45.615623
1479.492188	-44.765244
1480.468750	-47.158443
1481.445312	-46.166950
1482.421875	-45.536610
1483.398438	-46.519745
1484.375000	-46.118198
1485.351562	-47.653492
1486.328125	-48.178532
1487.304688	-47.625526
1488.281250	-48.479904
1489.257812	-48.620880
1490.234375	-48.607693
1491.210938	-48.929405
1492.187500	-48.677193
1493.164062	-47.085701
1494.140625	-49.090851
1495.117188	-49.638367
1496.093750	-49.419811
1497.070312	-50.731129
1498.046875	-49.588215
1499.023438	-49.747059
1500.000000	-50.637592
1500.976562	-51.274372
1501.953125	-50.011871
1502.929688	-49.848507
1503.906250	-50.932713
1504.882812	-52.165516
1505.859375	-49.527100
1506.835938	-50.195858
1507.812500	-51.647160
1508.789062	-51.937481
1509.765625	-50.527122
1510.742188	-50.619640
1511.718750	-52.843483
1512.695312	-53.013062
1513.671875	-51.895256
1514.648438	-51.957401
1515.625000	-52.275673
1516.601562	-53.022396
1517.578125	-51.858147
1518.554688	-52.762672
1519.531250	-53.170807
1520.507812	-53.007759
1521.484375	-52.105347
1522.460938	-53.548054
1523.437500	-53.458611
1524.414062	-54.751251
1525.390625	-53.490559
1526.367188	-52.969410
1527.343750	-54.163704
1528.320312	-53.239983
1529.296875	-53.649731
1530.273438	-52.750961
1531.250000	-54.338634
1532.226562	-52.211666
1533.203125	-52.829037
1534.179688	-53.798367
1535.156250	-52.278133
1536.132812	-53.545967
1537.109375	-53.547874
1538.085938	-53.129883
1539.062500	-54.007614
1540.039062	-52.609020
1541.015625	-53.448586
1541.992188	-53.031746
1542.968750	-53.159077
1543.945312	-54.292728
1544.921875	-53.772026
1545.898438	-53.672264
1546.875000	-54.827198
1547.851562	-53.945362
1548.828125	-54.628525
1549.804688	-54.332890
1550.781250	-54.480000
1551.757812	-54.762177
1552.734375	-55.184483
1553.710938	-53.388233
1554.687500	-54.470863
1555.664062	-54.274906
1556.640625	-54.046028
1557.617188	-54.331406
1558.593750	-54.979111
1559.570312	-54.359474
1560.546875	-54.309399
1561.523438	-53.773891
1562.500000	-54.445263
1563.476562	-54.485828
1564.453125	-53.572193
1565.429688	-54.279686
1566.406250	-55.672806
1567.382812	-54.266285
1568.359375	-53.585190
1569.335938	-54.543247
1570.312500	-54.455837
1571.289062	-55.766998
1572.265625	-53.960274
1573.242188	-54.524708
1574.218750	-53.893532
1575.195312	-53.605053
1576.171875	-54.163658
1577.148438	-54.492798
1578.125000	-55.479080
1579.101562	-55.707390
1580.078125	-53.181946
1581.054688	-54.815426
1582.031250	-55.030434
1583.007812	-53.892609
1583.984375	-55.100849
1584.960938	-54.305069
1585.937500	-54.886139
1586.914062	-55.254780
1587.890625	-53.120197
1588.867188	-54.883507
1589.843750	-54.454834
1590.820312	-55.853661
1591.796875	-53.898743
1592.773438	-54.622704
1593.750000	-53.423374
1594.726562	-54.767662
1595.703125	-53.737782
1596.679688	-53.213924
1597.656250	-53.979900
1598.632812	-55.092075
1599.609375	-53.541664
1600.585938	-52.963226
1601.562500	-54.692127
1602.539062	-53.524464
1603.515625	-52.802914
1604.492188	-54.071308
1605.468750	-53.336586
1606.445312	-52.662106
1607.421875	-51.309429
1608.398438	-53.591839
1609.375000	-52.456738
1610.351562	-51.329346
1611.328125	-53.421349
1612.304688	-53.227600
1613.281250	-51.012909
1614.257812	-52.994118
1615.234375	-51.664364
1616.210938	-51.296890
1617.187500	-50.279831
1618.164062	-51.529202
1619.140625	-52.272560
1620.117188	-49.534969
1621.093750	-50.168755
1622.070312	-51.294506
1623.046875	-52.369831
1624.023438	-50.314095
1625.000000	-52.158695
1625.976562	-50.892094
1626.953125	-50.638611
1627.929688	-49.660145
1628.906250	-48.236198
1629.882812	-49.481449
1630.859375	-48.984150
1631.835938	-49.645481
1632.812500	-49.762951
1633.789062	-48.587593
1634.765625	-48.587833
1635.742188	-49.152630
1636.718750	-47.829250
1637.695312	-48.695225
1638.671875	-44.372864
1639.648438	-45.452976
1640.625000	-48.253548
1641.601562	-47.929893
1642.578125	-45.590900
1643.554688	-44.882019
1644.531250	-47.826469
1645.507812	-46.188000
1646.484375	-46.477615
1647.460938	-45.363663
1648.437500	-46.630527
1649.414062	-46.297722
1650.390625	-45.996597
1651.367188	-46.037052
1652.343750	-43.592739
1653.320312	-44.452030
1654.296875	-46.430237
1655.273438	-48.287884
1656.250000	-48.385399
1657.226562	-44.053749
1658.203125	-43.741020
1659.179688	-45.324146
1660.156250	-47.616722
1661.132812	-48.955910
1662.109375	-47.767544
1663.085938	-46.988934
1664.062500	-49.907082
1665.039062	-48.505535
1666.015625	-49.442127
1666.992188	-49.386009
1667.968750	-49.750343
1668.945312	-50.887596
1669.921875	-51.967651
1670.898438	-51.080044
1671.875000	-48.965466
1672.851562	-51.509556
1673.828125	-51.877087
1674.804688	-51.905060
1675.781250	-52.390583
1676.757812	-52.943981
1677.734375	-51.900005
1678.710938	-52.279243
1679.687500	-52.062248
1680.664062	-50.475929
1681.640625	-53.087547
1682.617188	-52.717262
1683.593750	-52.934361
1684.570312	-52.539486
1685.546875	-54.262608
1686.523438	-52.976719
1687.500000	-53.845131
1688.476562	-53.537128
1689.453125	-55.125023
1690.429688	-53.042484
1691.406250	-53.670403
1692.382812	-54.546646
1693.359375	-53.953552
1694.335938	-54.078613
1695.312500	-53.233521
1696.289062	-52.786182
1697.265625	-53.464478
1698.242188	-54.718140
1699.218750	-55.111797
1700.195312	-53.331333
1701.171875	-52.795528
1702.148438	-54.142250
1703.125000	-56.065430
1704.101562	-55.055511
1705.078125	-54.253994
1706.054688	-53.274048
1707.031250	-54.639656
1708.007812	-54.322350
1708.984375	-54.694221
1709.960938	-55.294514
1710.937500	-53.190826
1711.914062	-54.166149
1712.890625	-55.351231
1713.867188	-54.200321
1714.843750	-53.695927
1715.820312	-53.537758
1716.796875	-54.579613
1717.773438	-53.843433
1718.750000	-55.465736
1719.726562	-54.626270
1720.703125	-54.587540
1721.679688	-55.493053
1722.656250	-55.060276
1723.632812	-54.444626
1724.609375	-54.475891
1725.585938	-53.225441
1726.562500	-55.211399
1727.539062	-55.223312
1728.515625	-54.855835
1729.492188	-54.543301
1730.468750	-55.796253
1731.445312	-54.903271
1732.421875	-54.323517
1733.398438	-54.988010
1734.375000	-55.855160
1735.351562	-53.843666
1736.328125	-54.563976
1737.304688	-56.595226
1738.281250	-55.968571
1739.257812	-54.365509
1740.234375	-54.693733
1741.210938	-54.953438
1742.187500	-55.110161
1743.164062	-53.210690
1744.140625	-54.661766
1745.117188	-55.298191
1746.093750	-56.162357
1747.070312	-54.891647
1748.046875	-55.228474
1749.023438	-55.137295
1750.000000	-54.072063
1750.976562	-54.314171
1751.953125	-54.595531
1752.929688	-55.127312
1753.906250	-55.305851
1754.882812	-56.069710
1755.859375	-55.092369
1756.835938	-54.706142
1757.812500	-53.678219
1758.789062	-53.594933
1759.765625	-55.254040
1760.742188	-54.775963
1761.718750	-54.398144
1762.695312	-55.468536
1763.671875	-53.473503
1764.648438	-52.463425
1765.625000	-53.329304
1766.601562	-54.966595
1767.578125	-55.711861
1768.554688	-55.346638
1769.531250	-54.446159
1770.507812	-54.317074
1771.484375	-54.991192
1772.460938	-54.326275
1773.437500	-53.455032
1774.414062	-52.779373
1775.390625	-54.653316
1776.367188	-54.726700
1777.343750	-53.932774
1778.320312	-53.403275
1779.296875	-54.482666
1780.273438	-54.560925
1781.250000	-54.671299
1782.226562	-53.703003
1783.203125	-53.859211
1784.179688	-53.968109
1785.156250	-54.286907
1786.132812	-55.086742
1787.109375	-51.848888
1788.085938	-52.860161
1789.062500	-52.386684
1790.039062	-52.456860
1791.015625	-52.105564
1791.992188	-52.960300
1792.968750	-51.943138
1793.945312	-52.561985
1794.921875	-53.268044
1795.898438	-52.296391
1796.875000	-51.092751
1797.851562	-53.522793
1798.828125	-53.562588
1799.804688	-52.157940
1800.781250	-50.895630
1801.757812	-52.173569
1802.734375	-52.954117
1803.710938	-53.106281
1804.687500	-51.416779
1805.664062	-48.690125
1806.640625	-50.510166
1807.617188	-51.963207
1808.593750	-51.562565
1809.570312	-51.379383
1810.546875	-50.486954
1811.523438	-50.720455
1812.500000	-49.192841
1813.476562	-51.270306
1814.453125	-49.755032
1815.429688	-49.699295
1816.406250	-50.263298
1817.382812	-48.725994
1818.359375	-48.488789
1819.335938	-51.491249
1820.312500	-49.294769
1821.289062	-48.649376
1822.265625	-49.415131
1823.242188	-47.970654
1824.218750	-45.584042
1825.195312	-48.878555
1826.171875	-50.269657
1827.148438	-47.322350
1828.125000	-47.698849
1829.101562	-46.838715
1830.078125	-47.190594
1831.054688	-49.180450
1832.031250	-47.042942
1833.007812	-46.774490
1833.984375	-46.569485
1834.960938	-50.745712
1835.937500	-47.898605
1836.914062	-46.673935
1837.890625	-48.875751
1838.867188	-51.477627
1839.843750	-45.579960
1840.820312	-46.182472
1841.796875	-48.968307
1842.773438	-48.578537
1843.750000	-48.251846
1844.726562	-51.637238
1845.703125	-50.555401
1846.679688	-48.152348
1847.656250	-50.040516
1848.632812	-51.118256
1849.609375	-51.716415
1850.585938	-50.640835
1851.562500	-50.519806
1852.539062	-51.585602
1853.515625	-51.383327
1854.492188	-52.039501
1855.468750	-51.568161
1856.445312	-50.239567
1857.421875	-51.761814
1858.398438	-52.297142
1859.375000	-52.131729
1860.351562	-53.489567
1861.328125	-53.075722
1862.304688	-49.748398
1863.281250	-53.389530
1864.257812	-52.428135
1865.234375	-52.805637
1866.210938	-52.957497
1867.187500	-53.164040
1868.164062	-54.451588
1869.140625	-54.027584
1870.117188	-53.273853
1871.093750	-53.837830
1872.070312	-53.572643
1873.046875	-53.095951
1874.023438	-52.968395
1875.000000	-54.238201
1875.976562	-54.346115
1876.953125	-53.815456
1877.929688	-53.154770
1878.906250	-54.133224
1879.882812	-53.293339
1880.859375	-53.430935
1881.835938	-53.206913
1882.812500	-54.375805
1883.789062	-53.854485
1884.765625	-54.955620
1885.742188	-53.832920
1886.718750	-55.079056
1887.695312	-53.854015
1888.671875	-53.205795
1889.648438	-53.799812
1890.625000	-53.198074
1891.601562	-54.867271
1892.578125	-53.126953
1893.554688	-54.738052
1894.531250	-54.140144
1895.507812	-54.975014
1896.484375	-53.870354
1897.460938	-54.863834
1898.437500	-54.974091
1899.414062	-54.679630
1900.390625	-54.224422
1901.367188	-55.331486
1902.343750	-54.908089
1903.320312	-54.221611
1904.296875	-54.527348
1905.273438	-54.567059
1906.250000	-53.630703
1907.226562	-54.274483
1908.203125	-55.012310
1909.179688	-54.591908
1910.156250	-53.890202
1911.132812	-55.322472
1912.109375	-55.288052
1913.085938	-53.956985
1914.062500	-53.476746
1915.039062	-55.027096
1916.015625	-54.696201
1916.992188	-55.148945
1917.968750	-54.218819
1918.945312	-54.555103
1919.921875	-54.228085
1920.898438	-55.131260
1921.875000	-54.135849
1922.851562	-54.149616
1923.828125	-54.039982
1924.804688	-54.188854
1925.781250	-55.072212
1926.757812	-52.958775
1927.734375	-52.037537
1928.710938	-54.103874
1929.687500	-54.839046
1930.664062	-53.433083
1931.640625	-52.873253
1932.617188	-53.229012
1933.593750	-53.583076
1934.570312	-54.170586
1935.546875	-53.574303
1936.523438	-53.630985
1937.500000	-52.936932
1938.476562	-51.866772
1939.453125	-52.111034
1940.429688	-53.777332
1941.406250	-53.051109
1942.382812	-53.336319
1943.359375	-52.556293
1944.335938	-51.717731
1945.312500	-50.688316
1946.289062	-53.173771
1947.265625	-53.201996
1948.242188	-53.374710
1949.218750	-52.459053
1950.195312	-53.709576
1951.171875	-54.492493
1952.148438	-53.720337
1953.125000	-51.240108
1954.101562	-52.988041
1955.078125	-51.911766
1956.054688	-52.166965
1957.031250	-52.847187
1958.007812	-53.335266
1958.984375	-51.749134
1959.960938	-52.771374
1960.937500	-52.867596
1961.914062	-53.256664
1962.890625	-51.381836
1963.867188	-50.663662
1964.843750	-52.918148
1965.820312	-51.426113
1966.796875	-51.029541
1967.773438	-50.561764
1968.750000	-52.800270
1969.726562	-50.747246
1970.703125	-48.875877
1971.679688	-50.875229
1972.656250	-52.374466
1973.632812	-52.208794
1974.609375	-51.206951
1975.585938	-50.361301
1976.562500	-50.325184
1977.539062	-49.997189
1978.515625	-49.406281
1979.492188	-50.638561
1980.468750	-50.697548
1981.445312	-50.076710
1982.421875	-51.753365
1983.398438	-51.367798
1984.375000	-49.362011
1985.351562	-50.414249
1986.328125	-52.270168
1987.304688	-50.702259
1988.281250	-48.050159
1989.257812	-49.245823
1990.234375	-49.608952
1991.210938	-48.665901
1992.187500	-47.895367
1993.164062	-48.897415
1994.140625	-47.531208
1995.117188	-48.743706
1996.093750	-48.595509
1997.070312	-47.145805
1998.046875	-48.442738
1999.023438	-47.314400
2000.000000	-47.389164
2000.976562	-47.199726
2001.953125	-48.868130
2002.929688	-45.989429
2003.906250	-46.483803
2004.882812	-45.455845
2005.859375	-47.204510
2006.835938	-44.339127
2007.812500	-47.066448
2008.789062	-49.246113
2009.765625	-45.906551
2010.742188	-46.963802
2011.718750	-46.050026
2012.695312	-43.169395
2013.671875	-45.857948
2014.648438	-47.786304
2015.625000	-48.451859
2016.601562	-49.419697
2017.578125	-48.018188
2018.554688	-46.865082
2019.531250	-49.710529
2020.507812	-49.203098
2021.484375	-49.272339
2022.460938	-48.383751
2023.437500	-48.527626
2024.414062	-46.604881
2025.390625	-46.733139
2026.367188	-49.105953
2027.343750	-50.591518
2028.320312	-48.998775
2029.296875	-48.673744
2030.273438	-50.109108
2031.250000	-50.337608
2032.226562	-49.641140
2033.203125	-50.814236
2034.179688	-51.643616
2035.156250	-51.273624
2036.132812	-50.637756
2037.109375	-49.747616
2038.085938	-49.521450
2039.062500	-51.675667
2040.039062	-50.605862
2041.015625	-50.021759
2041.992188	-51.255047
2042.968750	-51.482677
2043.945312	-51.087818
2044.921875	-51.030846
2045.898438	-51.449642
2046.875000	-50.875885
2047.851562	-51.491871
2048.828125	-51.062359
2049.804688	-51.643902
2050.781250	-51.845741
2051.757812	-51.650143
2052.734375	-52.322506
2053.710938	-52.150208
2054.687500	-51.435368
2055.664062	-51.268536
2056.640625	-49.841839
2057.617188	-51.296177
2058.593750	-51.978394
2059.570312	-51.551353
2060.546875	-50.359104
2061.523438	-50.524929
2062.500000	-50.549747
2063.476562	-52.300304
2064.453125	-51.466492
2065.429688	-49.936493
2066.406250	-50.772285
2067.382812	-51.706760
2068.359375	-50.283661
2069.335938	-50.722244
2070.312500	-51.297897
2071.289062	-50.141167
2072.265625	-51.197098
2073.242188	-49.391785
2074.218750	-49.451675
2075.195312	-49.044109
2076.171875	-49.630924
2077.148438	-47.253815
2078.125000	-49.220978
2079.101562	-48.284409
2080.078125	-48.719425
2081.054688	-49.174679
2082.031250	-48.558403
2083.007812	-48.821507
2083.984375	-49.274765
2084.960938	-48.359127
2085.937500	-47.710632
2086.914062	-48.410004
2087.890625	-47.100048
2088.867188	-49.131054
2089.843750	-47.721561
2090.820312	-44.916515
2091.796875	-47.267479
2092.773438	-46.863495
2093.750000	-48.620861
2094.726562	-48.128536
2095.703125	-46.986000
2096.679688	-48.153961
2097.656250	-47.416630
2098.632812	-46.935539
2099.609375	-48.016464
2100.585938	-47.681210
2101.562500	-46.217709
2102.539062	-46.737556
2103.515625	-45.900646
2104.492188	-46.370598
2105.468750	-45.881729
2106.445312	-44.815437
2107.421875	-45.298462
2108.398438	-48.511639
2109.375000	-48.276306
2110.351562	-48.827465
2111.328125	-46.380665
2112.304688	-45.904831
2113.281250	-46.656845
2114.257812	-46.791393
2115.234375	-46.869934
2116.210938	-47.415993
2117.187500	-46.906471
2118.164062	-46.630360
2119.140625	-45.616631
2120.117188	-43.808517
2121.093750	-46.909363
2122.070312	-44.875084
2123.046875	-45.408203
2124.023438	-46.576599
2125.000000	-48.197838
2125.976562	-47.292744
2126.953125	-46.012810
2127.929688	-47.448009
2128.906250	-45.826122
2129.882812	-46.635624
2130.859375	-45.268784
2131.835938	-45.747555
2132.812500	-46.576473
2133.789062	-45.172703
2134.765625	-43.154934
2135.742188	-42.535362
2136.718750	-44.489677
2137.695312	-45.667545
2138.671875	-43.204205
2139.648438	-45.676304
2140.625000	-45.851303
2141.601562	-46.526848
2142.578125	-46.085953
2143.554688	-46.512260
2144.531250	-45.305428
2145.507812	-44.093925
2146.484375	-44.731144
2147.460938	-45.093834
2148.437500	-44.238739
2149.414062	-43.670658
2150.390625	-45.617462
2151.367188	-45.243122
2152.343750	-42.999790
2153.320312	-42.098194
2154.296875	-44.378658
2155.273438	-44.096592
2156.250000	-43.157650
2157.226562	-41.416649
2158.203125	-41.900894
2159.179688	-43.051842
2160.156250	-40.946629
2161.132812	-40.402653
2162.109375	-42.035309
2163.085938	-41.666859
2164.062500	-41.761147
2165.039062	-41.937847
2166.015625	-41.818275
2166.992188	-39.853634
2167.968750	-42.650650
2168.945312	-42.422554
2169.921875	-42.099121
2170.898438	-40.294498
2171.875000	-40.189156
2172.851562	-39.542274
2173.828125	-41.469593
2174.804688	-39.665756
2175.781250	-39.285160
2176.757812	-39.693295
2177.734375	-40.124779
2178.710938	-37.928726
2179.687500	-39.391674
2180.664062	-39.278942
2181.640625	-40.926579
2182.617188	-40.912868
2183.593750	-40.576092
2184.570312	-40.630562
2185.546875	-40.404324
2186.523438	-40.979675
2187.500000	-42.254932
2188.476562	-41.453739
2189.453125	-41.340427
2190.429688	-42.031673
2191.406250	-43.211124
2192.382812	-43.267506
2193.359375	-41.569782
2194.335938	-42.227612
2195.312500	-42.673668
2196.289062	-41.450092
2197.265625	-42.966961
2198.242188	-43.505322
2199.218750	-44.102875
2200.195312	-42.829521
2201.171875	-42.306786
2202.148438	-43.899101
2203.125000	-44.702209
2204.101562	-43.481350
2205.078125	-42.724159
2206.054688	-43.055279
2207.031250	-44.559395
2208.007812	-44.186535
2208.984375	-43.021461
2209.960938	-43.698177
2210.937500	-44.481697
2211.914062	-43.609390
2212.890625	-44.969753
2213.867188	-44.564072
2214.843750	-43.917610
2215.820312	-44.679947
2216.796875	-43.890522
2217.773438	-44.795315
2218.750000	-43.814747
2219.726562	-44.876396
2220.703125	-44.666077
2221.679688	-43.905659
2222.656250	-44.866173
2223.632812	-44.763332
2224.609375	-44.108757
2225.585938	-44.979614
2226.562500	-44.254169
2227.539062	-45.396008
2228.515625	-44.083359
2229.492188	-45.050701
2230.468750	-44.963520
2231.445312	-44.436478
2232.421875	-43.792000
2233.398438	-43.765442
2234.375000	-45.116177
2235.351562	-43.701855
2236.328125	-43.930969
2237.304688	-44.576138
2238.281250	-42.788380
2239.257812	-42.752918
2240.234375	-43.972725
2241.210938	-43.381702
2242.187500	-43.606392
2243.164062	-43.580273
2244.140625	-43.221832
2245.117188	-41.933567
2246.093750	-41.634350
2247.070312	-42.090523
2248.046875	-42.282314
2249.023438	-40.408222
2250.000000	-41.565010
2250.976562	-40.660133
2251.953125	-39.297535
2252.929688	-39.739571
2253.906250	-41.550404
2254.882812	-41.352909
2255.859375	-40.180275
2256.835938	-40.980087
2257.812500	-39.504608
2258.789062	-39.532082
2259.765625	-40.731129
2260.742188	-41.390179
2261.718750	-40.064983
2262.695312	-40.549976
2263.671875	-41.201027
2264.648438	-40.358658
2265.625000	-40.851177
2266.601562	-40.041359
2267.578125	-38.558388
2268.554688	-39.666542
2269.531250	-39.837265
2270.507812	-39.419182
2271.484375	-39.454826
2272.460938	-39.644440
2273.437500	-39.461708
2274.414062	-38.381462
2275.390625	-40.340038
2276.367188	-39.945724
2277.343750	-37.829857
2278.320312	-40.137642
2279.296875	-40.233749
2280.273438	-39.140980
2281.250000	-38.943146
2282.226562	-39.549767
2283.203125	-40.058857
2284.179688	-38.788471
2285.156250	-39.199184
2286.132812	-38.518894
2287.109375	-39.536648
2288.085938	-37.354343
2289.062500	-39.369518
2290.039062	-40.407059
2291.015625	-40.196568
2291.992188	-39.593929
2292.968750	-40.608681
2293.945312	-38.970882
2294.921875	-39.000893
2295.898438	-39.785275
2296.875000	-39.410259
2297.851562	-39.845222
2298.828125	-39.353661
2299.804688	-41.334118
2300.781250	-39.144951
2301.757812	-38.264626
2302.734375	-39.149883
2303.710938	-40.697090
2304.687500	-40.125019
2305.664062	-39.346748
2306.640625	-38.899269
2307.617188	-39.965073
2308.593750	-39.953781
2309.570312	-38.825569
2310.546875	-39.602955
2311.523438	-39.607777
2312.500000	-39.202667
2313.476562	-38.893578
2314.453125	-40.693268
2315.429688	-39.969460
2316.406250	-37.292202
2317.382812	-38.867882
2318.359375	-40.062801
2319.335938	-39.382107
2320.312500	-36.653301
2321.289062	-37.283215
2322.265625	-37.598934
2323.242188	-39.935852
2324.218750	-37.916683
2325.195312	-39.684978
2326.171875	-39.488735
2327.148438	-39.474472
2328.125000	-38.430462
2329.101562	-39.401920
2330.078125	-38.590237
2331.054688	-39.681759
2332.031250	-38.536385
2333.007812	-38.794594
2333.984375	-37.453411
2334.960938	-40.708424
2335.937500	-39.633877
2336.914062	-40.134148
2337.890625	-36.501743
2338.867188	-38.950752
2339.843750	-38.449711
2340.820312	-37.298637
2341.796875	-36.681927
2342.773438	-41.738678
2343.750000	-39.901340
2344.726562	-41.452778
2345.703125	-36.672150
2346.679688	-40.615276
2347.656250	-40.112865
2348.632812	-38.733154
2349.609375	-38.788746
2350.585938	-42.444744
2351.562500	-41.982281
2352.539062	-42.168705
2353.515625	-40.307358
2354.492188	-40.026443
2355.468750	-40.554146
2356.445312	-40.257992
2357.421875	-40.870617
2358.398438	-44.341717
2359.375000	-45.083611
2360.351562	-41.659859
2361.328125	-43.421432
2362.304688	-43.806496
2363.281250	-40.816265
2364.257812	-41.960312
2365.234375	-44.288696
2366.210938	-43.081154
2367.187500	-43.944889
2368.164062	-43.205082
2369.140625	-45.203152
2370.117188	-46.463997
2371.093750	-45.463760
2372.070312	-45.829842
2373.046875	-47.262432
2374.023438	-46.465893
2375.000000	-46.006119
2375.976562	-46.300678
2376.953125	-46.306892
2377.929688	-46.626129
2378.906250	-44.665924
2379.882812	-46.637711
2380.859375	-46.961849
2381.835938	-46.997093
2382.812500	-46.548321
2383.789062	-47.037842
2384.765625	-47.476646
2385.742188	-47.589878
2386.718750	-47.287724
2387.695312	-48.202003
2388.671875	-45.486851
2389.648438	-46.189621
2390.625000	-46.923328
2391.601562	-48.043941
2392.578125	-49.421299
2393.554688	-46.742226
2394.531250	-47.586578
2395.507812	-48.387028
2396.484375	-46.884525
2397.460938	-47.935722
2398.437500	-47.276112
2399.414062	-49.134254
2400.390625	-49.345325
2401.367188	-48.377308
2402.343750	-47.387634
2403.320312	-48.266563
2404.296875	-46.200214
2405.273438	-47.338806
2406.250000	-49.245178
2407.226562	-47.810280
2408.203125	-48.275085
2409.179688	-48.115093
2410.156250	-48.993408
2411.132812	-49.074013
2412.109375	-49.378372
2413.085938	-47.965832
2414.062500	-47.630760
2415.039062	-47.009956
2416.015625	-49.010174
2416.992188	-48.808414
2417.968750	-50.315655
2418.945312	-48.672955
2419.921875	-48.685654
2420.898438	-50.217548
2421.875000	-49.521873
2422.851562	-49.758854
2423.828125	-49.348530
2424.804688	-49.208931
2425.781250	-49.620548
2426.757812	-48.970268
2427.734375	-48.811859
2428.710938	-48.817829
2429.687500	-49.666874
2430.664062	-48.590744
2431.640625	-48.137058
2432.617188	-49.708179
2433.593750	-49.257252
2434.570312	-48.168198
2435.546875	-47.853443
2436.523438	-48.681061
2437.500000	-48.266785
2438.476562	-47.930859
2439.453125	-47.935375
2440.429688	-49.313320
2441.406250	-47.274471
2442.382812	-48.463982
2443.359375	-48.862473
2444.335938	-47.375469
2445.312500	-46.235016
2446.289062	-47.439232
2447.265625	-47.526596
2448.242188	-46.449097
2449.218750	-47.006008
2450.195312	-48.107910
2451.171875	-47.307404
2452.148438	-46.011894
2453.125000	-46.163822
2454.101562	-45.879044
2455.078125	-46.385880
2456.054688	-45.714214
2457.031250	-47.487373
2458.007812	-46.024433
2458.984375	-46.603325
2459.960938	-46.292778
2460.937500	-46.334316
2461.914062	-47.231499
2462.890625	-45.279404
2463.867188	-46.882507
2464.843750	-46.732426
2465.820312	-47.664387
2466.796875	-46.288483
2467.773438	-47.349533
2468.750000	-46.253139
2469.726562	-48.481064
2470.703125	-47.811474
2471.679688	-47.129711
2472.656250	-47.985748
2473.632812	-46.837975
2474.609375	-46.232819
2475.585938	-46.534164
2476.562500	-48.639568
2477.539062	-47.517262
2478.515625	-48.467575
2479.492188	-50.005119
2480.468750	-49.764278
2481.445312	-49.065823
2482.421875	-47.913727
2483.398438	-50.378914
2484.375000	-49.301456
2485.351562	-48.552292
2486.328125	-48.560780
2487.304688	-49.711281
2488.281250	-50.340389
2489.257812	-49.823612
2490.234375	-48.773628
2491.210938	-50.885616
2492.187500	-49.776180
2493.164062	-48.583878
2494.140625	-50.271427
2495.117188	-51.229023
2496.093750	-49.586121
2497.070312	-49.147373
2498.046875	-49.969284
2499.023438	-49.810684
2500.000000	-50.483093
2500.976562	-50.259785
2501.953125	-50.830776
2502.929688	-48.916676
2503.906250	-49.791527
2504.882812	-52.052773
2505.859375	-50.229939
2506.835938	-49.308990
2507.812500	-48.551823
2508.789062	-49.430138
2509.765625	-51.693260
2510.742188	-51.723892
2511.718750	-51.173775
2512.695312	-51.133362
2513.671875	-49.562088
2514.648438	-50.010983
2515.625000	-50.277504
2516.601562	-50.264248
2517.578125	-50.356140
2518.554688	-49.570156
2519.531250	-51.971554
2520.507812	-48.867966
2521.484375	-50.673241
2522.460938	-49.903683
2523.437500	-51.685448
2524.414062	-51.308952
2525.390625	-51.700356
2526.367188	-50.687798
2527.343750	-49.957741
2528.320312	-50.209385
2529.296875	-48.526733
2530.273438	-52.428207
2531.250000	-50.944038
2532.226562	-51.524597
2533.203125	-52.239124
2534.179688	-49.072063
2535.156250	-50.240059
2536.132812	-49.703144
2537.109375	-50.527443
2538.085938	-51.849926
2539.062500	-51.221268
2540.039062	-52.621052
2541.015625	-51.131302
2541.992188	-50.437183
2542.968750	-51.592930
2543.945312	-52.572300
2544.921875	-50.667164
2545.898438	-49.644028
2546.875000	-50.630276
2547.851562	-51.439461
2548.828125	-49.771477
2549.804688	-51.744820
2550.781250	-50.243031
2551.757812	-49.885262
2552.734375	-50.477806
2553.710938	-51.074001
2554.687500	-51.845291
2555.664062	-50.901752
2556.640625	-50.838272
2557.617188	-52.910751
2558.593750	-51.821728
2559.570312	-51.122311
2560.546875	-49.004189
2561.523438	-49.300877
2562.500000	-47.740448
2563.476562	-49.482666
2564.453125	-50.646690
2565.429688	-52.644455
2566.406250	-52.721989
2567.382812	-52.256451
2568.359375	-51.579983
2569.335938	-51.427036
2570.312500	-50.483685
2571.289062	-51.583096
2572.265625	-50.218243
2573.242188	-52.668888
2574.218750	-52.319180
2575.195312	-53.146122
2576.171875	-51.510056
2577.148438	-53.210194
2578.125000	-52.471214
2579.101562	-53.222782
2580.078125	-53.491028
2581.054688	-53.035259
2582.031250	-51.516094
2583.007812	-52.073669
2583.984375	-53.616848
2584.960938	-54.327801
2585.937500	-53.740963
2586.914062	-54.949097
2587.890625	-54.362625
2588.867188	-54.546726
2589.843750	-53.609375
2590.820312	-52.819004
2591.796875	-52.929066
2592.773438	-52.887463
2593.750000	-53.965244
2594.726562	-52.623482
2595.703125	-54.035065
2596.679688	-53.127037
2597.656250	-53.308132
2598.632812	-52.433212
2599.609375	-53.017414
2600.585938	-53.810112
2601.562500	-53.800968
2602.539062	-52.593849
2603.515625	-53.088745
2604.492188	-52.065037
2605.468750	-54.116261
2606.445312	-51.862236
2607.421875	-51.853493
2608.398438	-53.776115
2609.375000	-52.770725
2610.351562	-52.420895
2611.328125	-52.490604
2612.304688	-52.529446
2613.281250	-50.929153
2614.257812	-52.731659
2615.234375	-52.448551
2616.210938	-52.895859
2617.187500	-51.561275
2618.164062	-52.169369
2619.140625	-50.417435
2620.117188	-51.217621
2621.093750	-51.118393
2622.070312	-52.434269
2623.046875	-52.191921
2624.023438	-50.753662
2625.000000	-51.999626
2625.976562	-50.096062
2626.953125	-52.216980
2627.929688	-51.718109
2628.906250	-52.829418
2629.882812	-51.306293
2630.859375	-50.457249
2631.835938	-50.206692
2632.812500	-49.985508
2633.789062	-52.167400
2634.765625	-51.581623
2635.742188	-51.049583
2636.718750	-50.842182
2637.695312	-51.826443
2638.671875	-51.242039
2639.648438	-51.374401
2640.625000	-52.564812
2641.601562	-50.944069
2642.578125	-49.647762
2643.554688	-51.639240
2644.531250	-52.003643
2645.507812	-52.197021
2646.484375	-51.355686
2647.460938	-52.856953
2648.437500	-52.399082
2649.414062	-49.395027
2650.390625	-52.225395
2651.367188	-51.179520
2652.343750	-51.425564
2653.320312	-51.817471
2654.296875	-52.329067
2655.273438	-50.678417
2656.250000	-51.546089
2657.226562	-52.005566
2658.203125	-51.382889
2659.179688	-53.515152
2660.156250	-51.981407
2661.132812	-52.748245
2662.109375	-48.697212
2663.085938	-50.902847
2664.062500	-52.700531
2665.039062	-50.650906
2666.015625	-50.216156
2666.992188	-50.371975
2667.968750	-51.557404
2668.945312	-49.116585
2669.921875	-52.828506
2670.898438	-50.768940
2671.875000	-53.124432
2672.851562	-49.214813
2673.828125	-52.625427
2674.804688	-50.952465
2675.781250	-51.175858
2676.757812	-52.381844
2677.734375	-50.814381
2678.710938	-49.958405
2679.687500	-48.271160
2680.664062	-50.030506
2681.640625	-52.506832
2682.617188	-50.373497
2683.593750	-48.536804
2684.570312	-49.897598
2685.546875	-51.449757
2686.523438	-52.078922
2687.500000	-51.728806
2688.476562	-51.957413
2689.453125	-52.024651
2690.429688	-48.921700
2691.406250	-51.331470
2692.382812	-51.963810
2693.359375	-50.649803
2694.335938	-50.967331
2695.312500	-52.254555
2696.289062	-48.387424
2697.265625	-49.477440
2698.242188	-50.962185
2699.218750	-51.582890
2700.195312	-51.865871
2701.171875	-50.176662
2702.148438	-48.780472
2703.125000	-51.766983
2704.101562	-52.161293
2705.078125	-54.062080
2706.054688	-51.642651
2707.031250	-51.065598
2708.007812	-49.709122
2708.984375	-48.873829
2709.960938	-52.286285
2710.937500	-49.351131
2711.914062	-47.404488
2712.890625	-49.836777
2713.867188	-52.207031
2714.843750	-49.846889
2715.820312	-51.798313
2716.796875	-52.148685
2717.773438	-47.688545
2718.750000	-51.447956
2719.726562	-51.210590
2720.703125	-51.166328
2721.679688	-50.109550
2722.656250	-48.694267
2723.632812	-51.833870
2724.609375	-49.565170
2725.585938	-47.857849
2726.562500	-51.655231
2727.539062	-50.504650
2728.515625	-49.679970
2729.492188	-49.960701
2730.468750	-51.037384
2731.445312	-49.333591
2732.421875	-50.641117
2733.398438	-50.514885
2734.375000	-49.649223
2735.351562	-49.081490
2736.328125	-51.867165
2737.304688	-51.048450
2738.281250	-49.484074
2739.257812	-50.796009
2740.234375	-52.934341
2741.210938	-52.199619
2742.187500	-50.484344
2743.164062	-52.629421
2744.140625	-51.736187
2745.117188	-50.818806
2746.093750	-53.637848
2747.070312	-51.787323
2748.046875	-48.794209
2749.023438	-50.982613
2750.000000	-50.077721
2750.976562	-53.849178
2751.953125	-52.601322
2752.929688	-51.989315
2753.906250	-54.202625
2754.882812	-49.791206
2755.859375	-51.096115
2756.835938	-53.505238
2757.812500	-52.308750
2758.789062	-51.887852
2759.765625	-53.171333
2760.742188	-52.347256
2761.718750	-53.491024
2762.695312	-51.704376
2763.671875	-53.968678
2764.648438	-55.185051
2765.625000	-53.759041
2766.601562	-53.382538
2767.578125	-53.250942
2768.554688	-53.529499
2769.531250	-51.873833
2770.507812	-52.364727
2771.484375	-54.396034
2772.460938	-53.000938
2773.437500	-53.437981
2774.414062	-55.204056
2775.390625	-52.984802
2776.367188	-52.395344
2777.343750	-54.001637
2778.320312	-53.454205
2779.296875	-52.539967
2780.273438	-53.144901
2781.250000	-52.592758
2782.226562	-54.699173
2783.203125	-53.867977
2784.179688	-53.909313
2785.156250	-53.213230
2786.132812	-53.195465
2787.109375	-52.735924
2788.085938	-53.507320
2789.062500	-53.630535
2790.039062	-53.405956
2791.015625	-52.160366
2791.992188	-51.293625
2792.968750	-52.085102
2793.945312	-50.521591
2794.921875	-53.428516
2795.898438	-54.626732
2796.875000	-53.398891
2797.851562	-52.370918
2798.828125	-52.666351
2799.804688	-52.402592
2800.781250	-52.329403
2801.757812	-53.148781
2802.734375	-52.411655
2803.710938	-52.379745
2804.687500	-53.442101
2805.664062	-52.787033
2806.640625	-52.566658
2807.617188	-53.711624
2808.593750	-53.330681
2809.570312	-51.259716
2810.546875	-51.602280
2811.523438	-50.758015
2812.500000	-51.397598
2813.476562	-53.091946
2814.453125	-51.190979
2815.429688	-52.439327
2816.406250	-55.436890
2817.382812	-51.052536
2818.359375	-50.937599
2819.335938	-49.121021
2820.312500	-49.826992
2821.289062	-50.411892
2822.265625	-47.539253
2823.242188	-53.101646
2824.218750	-53.083458
2825.195312	-51.633404
2826.171875	-52.550346
2827.148438	-48.822422
2828.125000	-49.096184
2829.101562	-51.387306
2830.078125	-49.837772
2831.054688	-53.072643
2832.031250	-53.321838
2833.007812	-51.876926
2833.984375	-52.319004
2834.960938	-49.910187
2835.937500	-50.420670
2836.914062	-49.980133
2837.890625	-49.309376
2838.867188	-50.748890
2839.843750	-49.197598
2840.820312	-49.768761
2841.796875	-49.981506
2842.773438	-51.264568
2843.750000	-51.219578
2844.726562	-53.065670
2845.703125	-48.877930
2846.679688	-48.061592
2847.656250	-50.631962
2848.632812	-51.284515
2849.609375	-51.782669
2850.585938	-51.674061
2851.562500	-52.480221
2852.539062	-50.545849
2853.515625	-49.540974
2854.492188	-50.249992
2855.468750	-46.831097
2856.445312	-48.566956
2857.421875	-48.762024
2858.398438	-47.902939
2859.375000	-48.800457
2860.351562	-49.331276
2861.328125	-50.550941
2862.304688	-49.788948
2863.281250	-49.675903
2864.257812	-46.352646
2865.234375	-49.587692
2866.210938	-47.862831
2867.187500	-50.303497
2868.164062	-50.464790
2869.140625	-50.866177
2870.117188	-48.892155
2871.093750	-49.006733
2872.070312	-48.270344
2873.046875	-46.209232
2874.023438	-45.061035
2875.000000	-47.180950
2875.976562	-47.962418
2876.953125	-49.588497
2877.929688	-50.120686
2878.906250	-48.926365
2879.882812	-46.931076
2880.859375	-47.388847
2881.835938	-48.041233
2882.812500	-48.330288
2883.789062	-48.269009
2884.765625	-46.871662
2885.742188	-49.143391
2886.718750	-48.092617
2887.695312	-48.271034
2888.671875	-45.207180
2889.648438	-44.744400
2890.625000	-49.199352
2891.601562	-48.865242
2892.578125	-47.030437
2893.554688	-50.177235
2894.531250	-49.497082
2895.507812	-46.609020
2896.484375	-47.899265
2897.460938	-49.234264
2898.437500	-47.785973
2899.414062	-48.857727
2900.390625	-47.907875
2901.367188	-48.857063
2902.343750	-47.088959
2903.320312	-48.213234
2904.296875	-48.012321
2905.273438	-48.920662
2906.250000	-47.004368
2907.226562	-47.787277
2908.203125	-48.593819
2909.179688	-48.792751
2910.156250	-48.648937
2911.132812	-49.115524
2912.109375	-48.968307
2913.085938	-50.457138
2914.062500	-51.111717
2915.039062	-48.726196
2916.015625	-46.934376
2916.992188	-46.885586
2917.968750	-48.843075
2918.945312	-48.947250
2919.921875	-50.641319
2920.898438	-48.924435
2921.875000	-49.451813
2922.851562	-48.890778
2923.828125	-50.213726
2924.804688	-49.723721
2925.781250	-49.271263
2926.757812	-49.892040
2927.734375	-50.821674
2928.710938	-46.920971
2929.687500	-48.391590
2930.664062	-50.650684
2931.640625	-51.540707
2932.617188	-50.523781
2933.593750	-50.095051
2934.570312	-50.722065
2935.546875	-51.530785
2936.523438	-50.767094
2937.500000	-48.766720
2938.476562	-51.187977
2939.453125	-51.228905
2940.429688	-50.390381
2941.406250	-49.263405
2942.382812	-51.824512
2943.359375	-51.324699
2944.335938	-51.344772
2945.312500	-51.184628
2946.289062	-51.821838
2947.265625	-53.720551
2948.242188	-50.368221
2949.218750	-52.122753
2950.195312	-51.297886
2951.171875	-49.514034
2952.148438	-50.036865
2953.125000	-50.248066
2954.101562	-51.923672
2955.078125	-50.493759
2956.054688	-51.211193
2957.031250	-50.934727
2958.007812	-50.767529
2958.984375	-50.248501
2959.960938	-51.342766
2960.937500	-50.845005
2961.914062	-49.622437
2962.890625	-50.155052
2963.867188	-51.072529
2964.843750	-50.289848
2965.820312	-49.922443
2966.796875	-50.300587
2967.773438	-50.777252
2968.750000	-51.326057
2969.726562	-51.199688
2970.703125	-49.828007
2971.679688	-50.906654
2972.656250	-49.220493
2973.632812	-50.235920
2974.609375	-50.588345
2975.585938	-50.760841
2976.562500	-48.554680
2977.539062	-51.000607
2978.515625	-51.591148
2979.492188	-49.843456
2980.468750	-48.240505
2981.445312	-50.927631
2982.421875	-49.644394
2983.398438	-49.780891
2984.375000	-51.592083
2985.351562	-50.413975
2986.328125	-51.428673
2987.304688	-49.770058
2988.281250	-48.649693
2989.257812	-50.641880
2990.234375	-48.332279
2991.210938	-48.084991
2992.187500	-50.319668
2993.164062	-49.408707
2994.140625	-50.901249
2995.117188	-50.558182
2996.093750	-50.379025
2997.070312	-49.210918
2998.046875	-47.657852
2999.023438	-47.028114
3000.000000	-48.444881
3000.976562	-49.746498
3001.953125	-51.080276
3002.929688	-50.640648
3003.906250	-50.513241
3004.882812	-50.925545
3005.859375	-49.747589
3006.835938	-49.656799
3007.812500	-49.466492
3008.789062	-50.017715
3009.765625	-50.923244
3010.742188	-51.159355
3011.718750	-51.338821
3012.695312	-50.822388
3013.671875	-49.883183
3014.648438	-50.779892
3015.625000	-49.436543
3016.601562	-48.009178
3017.578125	-48.259247
3018.554688	-46.241467
3019.531250	-48.241333
3020.507812	-49.466747
3021.484375	-50.112892
3022.460938	-49.036510
3023.437500	-50.410824
3024.414062	-49.849289
3025.390625	-48.241257
3026.367188	-49.244587
3027.343750	-46.579792
3028.320312	-48.078266
3029.296875	-49.021233
3030.273438	-49.741436
3031.250000	-48.502407
3032.226562	-49.116581
3033.203125	-47.473663
3034.179688	-47.981117
3035.156250	-47.439354
3036.132812	-48.131134
3037.109375	-46.672894
3038.085938	-46.659241
3039.062500	-45.645489
3040.039062	-47.595715
3041.015625	-46.779549
3041.992188	-47.557907
3042.968750	-48.021446
3043.945312	-46.643810
3044.921875	-46.440830
3045.898438	-44.919807
3046.875000	-46.011070
3047.851562	-46.206375
3048.828125	-45.485321
3049.804688	-45.932102
3050.781250	-48.508007
3051.757812	-45.925198
3052.734375	-46.288868
3053.710938	-46.886181
3054.687500	-44.213905
3055.664062	-44.667877
3056.640625	-44.530212
3057.617188	-46.598083
3058.593750	-45.830723
3059.570312	-45.527954
3060.546875	-45.456810
3061.523438	-45.805630
3062.500000	-47.506016
3063.476562	-44.331955
3064.453125	-45.521603
3065.429688	-43.955250
3066.406250	-44.062260
3067.382812	-45.620667
3068.359375	-44.174118
3069.335938	-44.058830
3070.312500	-45.643898
3071.289062	-45.566223
3072.265625	-45.022766
3073.242188	-42.630859
3074.218750	-41.066826
3075.195312	-44.828724
3076.171875	-43.890705
3077.148438	-43.752392
3078.125000	-42.980824
3079.101562	-44.228809
3080.078125	-44.488663
3081.054688	-44.131359
3082.031250	-42.977901
3083.007812	-43.070419
3083.984375	-43.711601
3084.960938	-43.516117
3085.937500	-43.678722
3086.914062	-43.356876
3087.890625	-44.343540
3088.867188	-45.420563
3089.843750	-44.099758
3090.820312	-43.338135
3091.796875	-43.544243
3092.773438	-45.025368
3093.750000	-46.108288
3094.726562	-44.460896
3095.703125	-43.296787
3096.679688	-44.730515
3097.656250	-45.669193
3098.632812	-46.138084
3099.609375	-45.177708
3100.585938	-44.377674
3101.562500	-44.830574
3102.539062	-45.387512
3103.515625	-46.173653
3104.492188	-43.760933
3105.468750	-43.713764
3106.445312	-44.527103
3107.421875	-43.882103
3108.398438	-45.939968
3109.375000	-43.777710
3110.351562	-44.024597
3111.328125	-44.378036
3112.304688	-43.518223
3113.281250	-44.685879
3114.257812	-44.753769
3115.234375	-45.692036
3116.210938	-43.395428
3117.187500	-43.945343
3118.164062	-44.795437
3119.140625	-43.479317
3120.117188	-43.144024
3121.093750	-43.799179
3122.070312	-42.646023
3123.046875	-43.795197
3124.023438	-43.187405
3125.000000	-44.194729
3125.976562	-43.596355
3126.953125	-44.681046
3127.929688	-44.494164
3128.906250	-42.861103
3129.882812	-45.184910
3130.859375	-44.499802
3131.835938	-44.053196
3132.812500	-41.785538
3133.789062	-44.490269
3134.765625	-44.091213
3135.742188	-43.516533
3136.718750	-44.010303
3137.695312	-44.347347
3138.671875	-43.941002
3139.648438	-45.139427
3140.625000	-45.361397
3141.601562	-43.643009
3142.578125	-42.855591
3143.554688	-44.736958
3144.531250	-44.817894
3145.507812	-44.615993
3146.484375	-43.061035
3147.460938	-44.499596
3148.437500	-42.698658
3149.414062	-43.805767
3150.390625	-43.368595
3151.367188	-43.760361
3152.343750	-42.056755
3153.320312	-42.524670
3154.296875	-45.264648
3155.273438	-42.057430
3156.250000	-43.238621
3157.226562	-43.522148
3158.203125	-43.925484
3159.179688	-44.139648
3160.156250	-41.945908
3161.132812	-43.937313
3162.109375	-44.268864
3163.085938	-44.615391
3164.062500	-41.392467
3165.039062	-43.364971
3166.015625	-43.013313
3166.992188	-44.529907
3167.968750	-41.878990
3168.945312	-41.024673
3169.921875	-43.321278
3170.898438	-43.585621
3171.875000	-42.678318
3172.851562	-42.767590
3173.828125	-43.048740
3174.804688	-42.408073
3175.781250	-43.336861
3176.757812	-43.910599
3177.734375	-41.797058
3178.710938	-42.204491
3179.687500	-43.585205
3180.664062	-42.554031
3181.640625	-43.431240
3182.617188	-41.896717
3183.593750	-42.441158
3184.570312	-42.808933
3185.546875	-42.885670
3186.523438	-41.423153
3187.500000	-40.958267
3188.476562	-41.939186
3189.453125	-42.134304
3190.429688	-42.198521
3191.406250	-40.069603
3192.382812	-39.772964
3193.359375	-41.000725
3194.335938	-39.255817
3195.312500	-40.038692
3196.289062	-40.407433
3197.265625	-42.542397
3198.242188	-38.605438
3199.218750	-41.864021
3200.195312	-41.782356
3201.171875	-41.462555
3202.148438	-40.037025
3203.125000	-40.205936
3204.101562	-39.831322
3205.078125	-38.747044
3206.054688	-40.396206
3207.031250	-43.680931
3208.007812	-41.099670
3208.984375	-44.143162
3209.960938	-42.106464
3210.937500	-42.404171
3211.914062	-41.040497
3212.890625	-42.061417
3213.867188	-42.025051
3214.843750	-42.211140
3215.820312	-41.255829
3216.796875	-40.753654
3217.773438	-39.925735
3218.750000	-40.297409
3219.726562	-42.103996
3220.703125	-39.581936
3221.679688	-38.860348
3222.656250	-39.183811
3223.632812	-39.237846
3224.609375	-39.422840
3225.585938	-39.994297
3226.562500	-40.363132
3227.539062	-39.481037
3228.515625	-38.724117
3229.492188	-41.325172
3230.468750	-38.903187
3231.445312	-37.199337
3232.421875	-39.409416
3233.398438	-39.172886
3234.375000	-38.528084
3235.351562	-36.742481
3236.328125	-38.143940
3237.304688	-37.847984
3238.281250	-37.016869
3239.257812	-36.046902
3240.234375	-37.110493
3241.210938	-36.971012
3242.187500	-36.051785
3243.164062	-36.654629
3244.140625	-37.312836
3245.117188	-37.983463
3246.093750	-37.020569
3247.070312	-38.562523
3248.046875	-38.046276
3249.023438	-38.138256
3250.000000	-38.957844
3250.976562	-38.828621
3251.953125	-37.355911
3252.929688	-36.429962
3253.906250	-35.700027
3254.882812	-36.092758
3255.859375	-35.184757
3256.835938	-33.887379
3257.812500	-35.175758
3258.789062	-34.601074
3259.765625	-33.406582
3260.742188	-34.412132
3261.718750	-34.876991
3262.695312	-33.451706
3263.671875	-33.547985
3264.648438	-34.800529
3265.625000	-32.285416
3266.601562	-31.539803
3267.578125	-32.888191
3268.554688	-33.363293
3269.531250	-32.343063
3270.507812	-32.119385
3271.484375	-32.727715
3272.460938	-32.049400
3273.437500	-33.233761
3274.414062	-32.983223
3275.390625	-33.339230
3276.367188	-32.380856
3277.343750	-33.566639
3278.320312	-33.105453
3279.296875	-32.257267
3280.273438	-31.723007
3281.250000	-34.159721
3282.226562	-31.933937
3283.203125	-33.436939
3284.179688	-33.519253
3285.156250	-32.026730
3286.132812	-32.807255
3287.109375	-33.078075
3288.085938	-31.809856
3289.062500	-32.031338
3290.039062	-32.756020
3291.015625	-31.728424
3291.992188	-31.420107
3292.968750	-31.889145
3293.945312	-31.362612
3294.921875	-31.519697
3295.898438	-33.021847
3296.875000	-32.613312
3297.851562	-31.305672
3298.828125	-31.826494
3299.804688	-32.282261
3300.781250	-31.015993
3301.757812	-29.932070
3302.734375	-31.765028
3303.710938	-31.026497
3304.687500	-29.667782
3305.664062	-30.664797
3306.640625	-31.113848
3307.617188	-30.909872
3308.593750	-29.045530
3309.570312	-31.497217
3310.546875	-31.616198
3311.523438	-30.025723
3312.500000	-29.801376
3313.476562	-31.683865
3314.453125	-30.191700
3315.429688	-31.168472
3316.406250	-31.217577
3317.382812	-31.045986
3318.359375	-31.034657
3319.335938	-30.543638
3320.312500	-31.417768
3321.289062	-30.915630
3322.265625	-30.787668
3323.242188	-31.685276
3324.218750	-32.024471
3325.195312	-30.595100
3326.171875	-30.948195
3327.148438	-31.511847
3328.125000	-31.570351
3329.101562	-31.029633
3330.078125	-31.552526
3331.054688	-31.271259
3332.031250	-31.030502
3333.007812	-31.332989
3333.984375	-31.827402
3334.960938	-31.379854
3335.937500	-31.982933
3336.914062	-31.437349
3337.890625	-31.460388
3338.867188	-31.313715
3339.843750	-33.143585
3340.820312	-32.719177
3341.796875	-31.365276
3342.773438	-31.380180
3343.750000	-32.620495
3344.726562	-32.090755
3345.703125	-31.508390
3346.679688	-32.447098
3347.656250	-31.830425
3348.632812	-32.172062
3349.609375	-32.015079
3350.585938	-32.098766
3351.562500	-33.001102
3352.539062	-31.166672
3353.515625	-31.631266
3354.492188	-33.321571
3355.468750	-33.419132
3356.445312	-31.471895
3357.421875	-32.748257
3358.398438	-31.726309
3359.375000	-32.251713
3360.351562	-33.287567
3361.328125	-32.313305
3362.304688	-32.504524
3363.281250	-31.705027
3364.257812	-32.003906
3365.234375	-32.500114
3366.210938	-33.000141
3367.187500	-32.249008
3368.164062	-32.925243
3369.140625	-31.618814
3370.117188	-33.547894
3371.093750	-31.367405
3372.070312	-32.542778
3373.046875	-31.390383
3374.023438	-32.007549
3375.000000	-31.629919
3375.976562	-31.717657
3376.953125	-32.483685
3377.929688	-31.914276
3378.906250	-32.236439
3379.882812	-31.282717
3380.859375	-32.246662
3381.835938	-31.573334
3382.812500	-31.366110
3383.789062	-31.572515
3384.765625	-32.321583
3385.742188	-33.504822
3386.718750	-33.318199
3387.695312	-32.788975
3388.671875	-32.351624
3389.648438	-32.651882
3390.625000	-31.873466
3391.601562	-33.925606
3392.578125	-31.502886
3393.554688	-31.975594
3394.531250	-32.572971
3395.507812	-32.804756
3396.484375	-32.703217
3397.460938	-33.150486
3398.437500	-32.844429
3399.414062	-33.453552
3400.390625	-34.294857
3401.367188	-33.659241
3402.343750	-34.283901
3403.320312	-33.830784
3404.296875	-33.793686
3405.273438	-35.335369
3406.250000	-35.521908
3407.226562	-34.488033
3408.203125	-33.170158
3409.179688	-33.020828
3410.156250	-35.823929
3411.132812	-33.904682
3412.109375	-34.519753
3413.085938	-34.013252
3414.062500	-33.302776
3415.039062	-34.192566
3416.015625	-36.530434
3416.992188	-36.183029
3417.968750	-36.007355
3418.945312	-35.441505
3419.921875	-35.643410
3420.898438	-35.139854
3421.875000	-35.856766
3422.851562	-36.634621
3423.828125	-36.082706
3424.804688	-35.954102
3425.781250	-36.217747
3426.757812	-36.922840
3427.734375	-36.378494
3428.710938	-35.820423
3429.687500	-36.158146
3430.664062	-37.410126
3431.640625	-37.212929
3432.617188	-37.283413
3433.593750	-36.355480
3434.570312	-37.125233
3435.546875	-37.808460
3436.523438	-38.608723
3437.500000	-39.343544
3438.476562	-36.841156
3439.453125	-36.993610
3440.429688	-38.588409
3441.406250	-38.975323
3442.382812	-37.882576
3443.359375	-39.262909
3444.335938	-39.317127
3445.312500	-40.629269
3446.289062	-38.859810
3447.265625	-38.927151
3448.242188	-38.543159
3449.218750	-38.851315
3450.195312	-39.778866
3451.171875	-38.950706
3452.148438	-38.338421
3453.125000	-39.840771
3454.101562	-38.606117
3455.078125	-40.852135
3456.054688	-39.604397
3457.031250	-38.975658
3458.007812	-40.081169
3458.984375	-39.754654
3459.960938	-41.478748
3460.937500	-41.239861
3461.914062	-40.996082
3462.890625	-43.701546
3463.867188	-42.805386
3464.843750	-43.309509
3465.820312	-43.534847
3466.796875	-41.208988
3467.773438	-41.843498
3468.750000	-43.073841
3469.726562	-43.973606
3470.703125	-44.310051
3471.679688	-44.057152
3472.656250	-43.481407
3473.632812	-42.129230
3474.609375	-44.093128
3475.585938	-44.639782
3476.562500	-44.179619
3477.539062	-44.796783
3478.515625	-46.009563
3479.492188	-44.641560
3480.468750	-45.016407
3481.445312	-44.941910
3482.421875	-43.611969
3483.398438	-46.414673
3484.375000	-44.401985
3485.351562	-45.550858
3486.328125	-45.734146
3487.304688	-45.494236
3488.281250	-45.469746
3489.257812	-46.000160
3490.234375	-45.622643
3491.210938	-45.609119
3492.187500	-45.473770
3493.164062	-45.348923
3494.140625	-45.996574
3495.117188	-45.588718
3496.093750	-46.514629
3497.070312	-47.145412
3498.046875	-46.146793
3499.023438	-46.433224
3500.000000	-47.137268
3500.976562	-46.968365
3501.953125	-46.207142
3502.929688	-47.891529
3503.906250	-48.132385
3504.882812	-47.960396
3505.859375	-47.538723
3506.835938	-46.759468
3507.812500	-45.269760
3508.789062	-47.309299
3509.765625	-47.721554
3510.742188	-46.711220
3511.718750	-46.906082
3512.695312	-47.584785
3513.671875	-49.085598
3514.648438	-46.483521
3515.625000	-46.055653
3516.601562	-47.630859
3517.578125	-48.030556
3518.554688	-48.087780
3519.531250	-48.489212
3520.507812	-47.219299
3521.484375	-48.758724
3522.460938	-48.340115
3523.437500	-48.376518
3524.414062	-49.818081
3525.390625	-49.199860
3526.367188	-49.219288
3527.343750	-48.034763
3528.320312	-48.913101
3529.296875	-48.881916
3530.273438	-48.175949
3531.250000	-50.463531
3532.226562	-48.990517
3533.203125	-47.128166
3534.179688	-49.598518
3535.156250	-50.117954
3536.132812	-48.850773
3537.109375	-48.516735
3538.085938	-49.963802
3539.062500	-49.166565
3540.039062	-47.988934
3541.015625	-48.444366
3541.992188	-50.119877
3542.968750	-49.208038
3543.945312	-48.838902
3544.921875	-48.826538
3545.898438	-49.308857
3546.875000	-48.129940
3547.851562	-49.071705
3548.828125	-49.228134
3549.804688	-50.277382
3550.781250	-49.757030
3551.757812	-49.661091
3552.734375	-50.313244
3553.710938	-48.451202
3554.687500	-49.930794
3555.664062	-50.219696
3556.640625	-48.641335
3557.617188	-48.192680
3558.593750	-48.151035
3559.570312	-49.427193
3560.546875	-49.795250
3561.523438	-49.865715
3562.500000	-50.064137
3563.476562	-49.467148
3564.453125	-49.760410
3565.429688	-49.566029
3566.406250	-50.289845
3567.382812	-49.619572
3568.359375	-49.405136
3569.335938	-48.671036
3570.312500	-48.107883
3571.289062	-48.785824
3572.265625	-50.236362
3573.242188	-49.866585
3574.218750	-49.067410
3575.195312	-50.344028
3576.171875	-49.923908
3577.148438	-50.030441
3578.125000	-49.591053
3579.101562	-48.203407
3580.078125	-49.024330
3581.054688	-50.695904
3582.031250	-50.854908
3583.007812	-50.399448
3583.984375	-49.545486
3584.960938	-50.242184
3585.937500	-51.351437
3586.914062	-51.408016
3587.890625	-51.547131
3588.867188	-50.054810
3589.843750	-49.962933
3590.820312	-50.027840
3591.796875	-49.890518
3592.773438	-50.931808
3593.750000	-51.197144
3594.726562	-50.564789
3595.703125	-50.628540
3596.679688	-51.205143
3597.656250	-50.393173
3598.632812	-50.465565
3599.609375	-52.039257
3600.585938	-49.146748
3601.562500	-50.492664
3602.539062	-51.030876
3603.515625	-49.727863
3604.492188	-49.972973
3605.468750	-50.627594
3606.445312	-49.251831
3607.421875	-48.065571
3608.398438	-49.469444
3609.375000	-49.428417
3610.351562	-50.546669
3611.328125	-49.626343
3612.304688	-50.125061
3613.281250	-49.087280
3614.257812	-49.090385
3615.234375	-50.610977
3616.210938	-51.280197
3617.187500	-50.734276
3618.164062	-50.500153
3619.140625	-50.128498
3620.117188	-51.259426
3621.093750	-50.776794
3622.070312	-51.061466
3623.046875	-51.593475
3624.023438	-51.515850
3625.000000	-51.248173
3625.976562	-51.096325
3626.953125	-49.913647
3627.929688	-50.678314
3628.906250	-52.512306
3629.882812	-51.302334
3630.859375	-50.897861
3631.835938	-51.370983
3632.812500	-51.192108
3633.789062	-49.744823
3634.765625	-50.023907
3635.742188	-49.942707
3636.718750	-49.672215
3637.695312	-51.031162
3638.671875	-51.773838
3639.648438	-50.594269
3640.625000	-50.036087
3641.601562	-50.665546
3642.578125	-51.586758
3643.554688	-50.549026
3644.531250	-49.242619
3645.507812	-49.790401
3646.484375	-51.628719
3647.460938	-51.266151
3648.437500	-50.971539
3649.414062	-50.654442
3650.390625	-51.245991
3651.367188	-51.562119
3652.343750	-50.327629
3653.320312	-49.970703
3654.296875	-51.033337
3655.273438	-51.236069
3656.250000	-51.781891
3657.226562	-51.335785
3658.203125	-50.663429
3659.179688	-51.637112
3660.156250	-50.687065
3661.132812	-50.283157
3662.109375	-50.558529
3663.085938	-50.274311
3664.062500	-50.345169
3665.039062	-53.071175
3666.015625	-52.752029
3666.992188	-51.290665
3667.968750	-51.547974
3668.945312	-52.593285
3669.921875	-52.927238
3670.898438	-51.771465
3671.875000	-51.908550
3672.851562	-53.580303
3673.828125	-53.805489
3674.804688	-52.402840
3675.781250	-51.175812
3676.757812	-52.008671
3677.734375	-51.062950
3678.710938	-53.065487
3679.687500	-53.154396
3680.664062	-52.453751
3681.640625	-52.136932
3682.617188	-52.864223
3683.593750	-52.057377
3684.570312	-53.570164
3685.546875	-54.597282
3686.523438	-55.196434
3687.500000	-52.706188
3688.476562	-52.522884
3689.453125	-52.076149
3690.429688	-53.883820
3691.406250	-52.760967
3692.382812	-51.386509
3693.359375	-52.792160
3694.335938	-51.780777
3695.312500	-53.547264
3696.289062	-53.525082
3697.265625	-54.044285
3698.242188	-54.656944
3699.218750	-54.394264
3700.195312	-53.765125
3701.171875	-53.625885
3702.148438	-53.809612
3703.125000	-55.054882
3704.101562	-54.543911
3705.078125	-55.508099
3706.054688	-52.774864
3707.031250	-53.629955
3708.007812	-54.960472
3708.984375	-54.110859
3709.960938	-55.451630
3710.937500	-55.245415
3711.914062	-53.953579
3712.890625	-54.751350
3713.867188	-54.274071
3714.843750	-53.630146
3715.820312	-53.377670
3716.796875	-55.756138
3717.773438	-53.576939
3718.750000	-53.857143
3719.726562	-54.023548
3720.703125	-54.996471
3721.679688	-53.934853
3722.656250	-53.945541
3723.632812	-54.889801
3724.609375	-55.231995
3725.585938	-53.223106
3726.562500	-53.938385
3727.539062	-54.547092
3728.515625	-52.987835
3729.492188	-54.672699
3730.468750	-54.883076
3731.445312	-54.651737
3732.421875	-54.542049
3733.398438	-55.318932
3734.375000	-54.961853
3735.351562	-54.373859
3736.328125	-54.255447
3737.304688	-54.902176
3738.281250	-54.625839
3739.257812	-54.644211
3740.234375	-53.774574
3741.210938	-54.509583
3742.187500	-54.172398
3743.164062	-55.514885
3744.140625	-54.482830
3745.117188	-54.402325
3746.093750	-53.863209
3747.070312	-54.843208
3748.046875	-54.834442
3749.023438	-55.336044
3750.000000	-53.403751
3750.976562	-55.640060
3751.953125	-55.417526
3752.929688	-54.132042
3753.906250	-54.776188
3754.882812	-55.365269
3755.859375	-54.842667
3756.835938	-53.763233
3757.812500	-55.360630
3758.789062	-54.682949
3759.765625	-55.240917
3760.742188	-55.441544
3761.718750	-54.649696
3762.695312	-53.573990
3763.671875	-54.765942
3764.648438	-53.533451
3765.625000	-55.206383
3766.601562	-55.704380
3767.578125	-55.194107
3768.554688	-53.507000
3769.531250	-55.976887
3770.507812	-53.781994
3771.484375	-53.574265
3772.460938	-53.565269
3773.437500	-54.449203
3774.414062	-55.509441
3775.390625	-54.772797
3776.367188	-54.244190
3777.343750	-54.869217
3778.320312	-54.050980
3779.296875	-54.454647
3780.273438	-55.698982
3781.250000	-54.606834
3782.226562	-55.234646
3783.203125	-54.186333
3784.179688	-54.485455
3785.156250	-54.201477
3786.132812	-54.460270
3787.109375	-52.566238
3788.085938	-54.967842
3789.062500	-54.824146
3790.039062	-54.729527
3791.015625	-54.609325
3791.992188	-54.567169
3792.968750	-54.917980
3793.945312	-54.416901
3794.921875	-54.388123
3795.898438	-54.647240
3796.875000	-54.247799
3797.851562	-54.278629
3798.828125	-55.330574
3799.804688	-53.772488
3800.781250	-55.477638
3801.757812	-54.986485
3802.734375	-55.164326
3803.710938	-55.778225
3804.687500	-54.015640
3805.664062	-53.262451
3806.640625	-54.402103
3807.617188	-54.168247
3808.593750	-54.677086
3809.570312	-54.195602
3810.546875	-52.739120
3811.523438	-54.787880
3812.500000	-54.291904
3813.476562	-55.324909
3814.453125	-54.611217
3815.429688	-54.231468
3816.406250	-53.356995
3817.382812	-53.704975
3818.359375	-53.587242
3819.335938	-55.518269
3820.312500	-53.315254
3821.289062	-53.746960
3822.265625	-54.857780
3823.242188	-54.537640
3824.218750	-54.125099
3825.195312	-53.001507
3826.171875	-53.399200
3827.148438	-51.282028
3828.125000	-53.132442
3829.101562	-52.846458
3830.078125	-52.234718
3831.054688	-53.606441
3832.031250	-53.332878
3833.007812	-51.720726
3833.984375	-53.935574
3834.960938	-54.544552
3835.937500	-53.662167
3836.914062	-53.355007
3837.890625	-54.318951
3838.867188	-53.286659
3839.843750	-53.672680
3840.820312	-51.740540
3841.796875	-49.761719
3842.773438	-52.462986
3843.750000	-52.539684
3844.726562	-51.685703
3845.703125	-52.749882
3846.679688	-54.867565
3847.656250	-52.871143
3848.632812	-52.458530
3849.609375	-52.942135
3850.585938	-54.167751
3851.562500	-53.804829
3852.539062	-53.833656
3853.515625	-54.190983
3854.492188	-55.376427
3855.468750	-54.261482
3856.445312	-51.741165
3857.421875	-53.020126
3858.398438	-55.003372
3859.375000	-54.347858
3860.351562	-54.537266
3861.328125	-53.927437
3862.304688	-54.576683
3863.281250	-54.073189
3864.257812	-53.395115
3865.234375	-54.547760
3866.210938	-54.585117
3867.187500	-55.666653
3868.164062	-55.298721
3869.140625	-55.724686
3870.117188	-55.618660
3871.093750	-55.191612
3872.070312	-54.582756
3873.046875	-53.047050
3874.023438	-54.766689
3875.000000	-54.926933
3875.976562	-53.663116
3876.953125	-53.962238
3877.929688	-55.420658
3878.906250	-55.661335
3879.882812	-54.822056
3880.859375	-53.929218
3881.835938	-55.552441
3882.812500	-54.847912
3883.789062	-55.059685
3884.765625	-55.466713
3885.742188	-56.090149
3886.718750	-55.085148
3887.695312	-55.241371
3888.671875	-55.359283
3889.648438	-54.638058
3890.625000	-53.991409
3891.601562	-55.397705
3892.578125	-55.078117
3893.554688	-55.318764
3894.531250	-54.762192
3895.507812	-54.938469
3896.484375	-54.899429
3897.460938	-54.912315
3898.437500	-55.332043
3899.414062	-54.944679
3900.390625	-54.027115
3901.367188	-55.018005
3902.343750	-55.257339
3903.320312	-56.071465
3904.296875	-54.475052
3905.273438	-52.778893
3906.250000	-55.590328
3907.226562	-55.385490
3908.203125	-53.978951
3909.179688	-54.000439
3910.156250	-56.012966
3911.132812	-55.336708
3912.109375	-55.165688
3913.085938	-54.955746
3914.062500	-54.628769
3915.039062	-54.496956
3916.015625	-53.901543
3916.992188	-54.848511
3917.968750	-54.858894
3918.945312	-55.422066
3919.921875	-55.170349
3920.898438	-54.701420
3921.875000	-55.978699
3922.851562	-55.660625
3923.828125	-55.093910
3924.804688	-55.674767
3925.781250	-55.711922
3926.757812	-54.973495
3927.734375	-55.104366
3928.710938	-55.209888
3929.687500	-54.258091
3930.664062	-55.139393
3931.640625	-55.333366
3932.617188	-55.266930
3933.593750	-54.850510
3934.570312	-55.045055
3935.546875	-55.069679
3936.523438	-55.342289
3937.500000	-54.648106
3938.476562	-55.739880
3939.453125	-55.695248
3940.429688	-55.379612
3941.406250	-55.367771
3942.382812	-55.857578
3943.359375	-54.810421
3944.335938	-54.175903
3945.312500	-54.732349
3946.289062	-54.394424
3947.265625	-55.063389
3948.242188	-56.131672
3949.218750	-55.105610
3950.195312	-55.282661
3951.171875	-54.795330
3952.148438	-55.412693
3953.125000	-56.427521
3954.101562	-55.347977
3955.078125	-54.515163
3956.054688	-54.944977
3957.031250	-54.143257
3958.007812	-53.932705
3958.984375	-54.147972
3959.960938	-54.116920
3960.937500	-55.493626
3961.914062	-54.294693
3962.890625	-55.287483
3963.867188	-54.941669
3964.843750	-54.614872
3965.820312	-53.871635
3966.796875	-54.309879
3967.773438	-54.920361
3968.750000	-54.903366
3969.726562	-53.097706
3970.703125	-53.791943
3971.679688	-53.297810
3972.656250	-53.598732
3973.632812	-53.694462
3974.609375	-53.668674
3975.585938	-54.013355
3976.562500	-54.608898
3977.539062	-52.604992
3978.515625	-54.651474
3979.492188	-55.084938
3980.468750	-54.362514
3981.445312	-54.543110
3982.421875	-54.597370
3983.398438	-55.678730
3984.375000	-55.065582
3985.351562	-53.555851
3986.328125	-54.020592
3987.304688	-54.081135
3988.281250	-53.963734
3989.257812	-54.761505
3990.234375	-53.509476
3991.210938	-53.559128
3992.187500	-53.634487
3993.164062	-53.389927
3994.140625	-53.257236
3995.117188	-53.793861
3996.093750	-53.784550
3997.070312	-55.577412
3998.046875	-52.412952
3999.023438	-53.545662
4000.000000	-54.460400
4000.976562	-55.121197
4001.953125	-54.378349
4002.929688	-55.220463
4003.906250	-55.269001
4004.882812	-53.681080
4005.859375	-53.561344
4006.835938	-54.396011
4007.812500	-52.689140
4008.789062	-53.731030
4009.765625	-53.189342
4010.742188	-53.701382
4011.718750	-52.958458
4012.695312	-54.036701
4013.671875	-52.727421
4014.648438	-53.440517
4015.625000	-54.297703
4016.601562	-53.651360
4017.578125	-52.863178
4018.554688	-53.384773
4019.531250	-53.429474
4020.507812	-53.130173
4021.484375	-52.477535
4022.460938	-53.868046
4023.437500	-53.284279
4024.414062	-51.764000
4025.390625	-52.689766
4026.367188	-54.724300
4027.343750	-55.117081
4028.320312	-53.067711
4029.296875	-54.288357
4030.273438	-55.346775
4031.250000	-54.462109
4032.226562	-53.201069
4033.203125	-52.892529
4034.179688	-52.680386
4035.156250	-53.924355
4036.132812	-53.388187
4037.109375	-52.061165
4038.085938	-53.591267
4039.062500	-54.612762
4040.039062	-53.610958
4041.015625	-52.963875
4041.992188	-54.174076
4042.968750	-54.094776
4043.945312	-53.984219
4044.921875	-54.417469
4045.898438	-55.270988
4046.875000	-54.047649
4047.851562	-54.510010
4048.828125	-53.714066
4049.804688	-53.141869
4050.781250	-55.145050
4051.757812	-54.866768
4052.734375	-53.189861
4053.710938	-52.942265
4054.687500	-54.518353
4055.664062	-53.047577
4056.640625	-53.689728
4057.617188	-53.345436
4058.593750	-54.337887
4059.570312	-53.789616
4060.546875	-54.704018
4061.523438	-54.412560
4062.500000	-53.886642
4063.476562	-54.665970
4064.453125	-55.061344
4065.429688	-55.363815
4066.406250	-54.403858
4067.382812	-54.460396
4068.359375	-55.985992
4069.335938	-54.728954
4070.312500	-54.609058
4071.289062	-54.229176
4072.265625	-55.345097
4073.242188	-55.460522
4074.218750	-55.164043
4075.195312	-53.807938
4076.171875	-53.992771
4077.148438	-53.961769
4078.125000	-54.360069
4079.101562	-54.500984
4080.078125	-55.255409
4081.054688	-54.312103
4082.031250	-53.373302
4083.007812	-55.815823
4083.984375	-53.771656
4084.960938	-54.679409
4085.937500	-54.247463
4086.914062	-54.501583
4087.890625	-54.959549
4088.867188	-52.844440
4089.843750	-53.683170
4090.820312	-54.669411
4091.796875	-53.266178
4092.773438	-54.436687
4093.750000	-54.625908
4094.726562	-54.475582
4095.703125	-55.658443
4096.679688	-54.646931
4097.656250	-53.164345
4098.632812	-55.031860
4099.609375	-54.444183
4100.585938	-54.182281
4101.562500	-52.513161
4102.539062	-53.495564
4103.515625	-54.246296
4104.492188	-54.017284
4105.468750	-55.296104
4106.445312	-54.693954
4107.421875	-54.167690
4108.398438	-55.013458
4109.375000	-53.232132
4110.351562	-53.082817
4111.328125	-54.739811
4112.304688	-54.372742
4113.281250	-53.322628
4114.257812	-54.863449
4115.234375	-54.482391
4116.210938	-52.947460
4117.187500	-53.668365
4118.164062	-54.511921
4119.140625	-54.411541
4120.117188	-54.026787
4121.093750	-54.086304
4122.070312	-53.308846
4123.046875	-53.400276
4124.023438	-54.483330
4125.000000	-54.588631
4125.976562	-53.711494
4126.953125	-54.196720
4127.929688	-54.647575
4128.906250	-53.141777
4129.882812	-53.391628
4130.859375	-53.025234
4131.835938	-53.178551
4132.812500	-54.182499
4133.789062	-53.239204
4134.765625	-52.654663
4135.742188	-54.524185
4136.718750	-53.447643
4137.695312	-53.784184
4138.671875	-54.083424
4139.648438	-53.701038
4140.625000	-52.239738
4141.601562	-53.788567
4142.578125	-54.984161
4143.554688	-53.223095
4144.531250	-52.710743
4145.507812	-53.323921
4146.484375	-52.659107
4147.460938	-52.227909
4148.437500	-51.931461
4149.414062	-53.499557
4150.390625	-51.270039
4151.367188	-52.605415
4152.343750	-53.030750
4153.320312	-52.028545
4154.296875	-50.916344
4155.273438	-52.774128
4156.250000	-53.473228
4157.226562	-52.481468
4158.203125	-53.787964
4159.179688	-51.997097
4160.156250	-52.929752
4161.132812	-53.023579
4162.109375	-53.151024
4163.085938	-52.906849
4164.062500	-51.588558
4165.039062	-52.106899
4166.015625	-52.531982
4166.992188	-53.109360
4167.968750	-51.998928
4168.945312	-52.288822
4169.921875	-52.948227
4170.898438	-52.362816
4171.875000	-52.114853
4172.851562	-52.238781
4173.828125	-51.800255
4174.804688	-53.034222
4175.781250	-53.320919
4176.757812	-53.315735
4177.734375	-52.713993
4178.710938	-50.759819
4179.687500	-51.401535
4180.664062	-53.365108
4181.640625	-51.434826
4182.617188	-53.158596
4183.593750	-49.975388
4184.570312	-49.217827
4185.546875	-49.903625
4186.523438	-49.708420
4187.500000	-51.033161
4188.476562	-50.078812
4189.453125	-52.517979
4190.429688	-51.817627
4191.406250	-50.737968
4192.382812	-48.567200
4193.359375	-49.571899
4194.335938	-52.367092
4195.312500	-49.702381
4196.289062	-49.706104
4197.265625	-51.759064
4198.242188	-51.273617
4199.218750	-51.588856
4200.195312	-52.930969
4201.171875	-53.306984
4202.148438	-52.503017
4203.125000	-52.598366
4204.101562	-52.053448
4205.078125	-51.229717
4206.054688	-50.100204
4207.031250	-50.631119
4208.007812	-50.744984
4208.984375	-49.473351
4209.960938	-51.100956
4210.937500	-51.610088
4211.914062	-50.846981
4212.890625	-51.795532
4213.867188	-50.501171
4214.843750	-48.625790
4215.820312	-51.066338
4216.796875	-51.274681
4217.773438	-49.592323
4218.750000	-49.851112
4219.726562	-51.137329
4220.703125	-50.713722
4221.679688	-50.553207
4222.656250	-49.362183
4223.632812	-50.042515
4224.609375	-52.718338
4225.585938	-51.343914
4226.562500	-50.384544
4227.539062	-50.624241
4228.515625	-50.968681
4229.492188	-52.369495
4230.468750	-52.349976
4231.445312	-51.669987
4232.421875	-50.575066
4233.398438	-52.280453
4234.375000	-50.876144
4235.351562	-49.682297
4236.328125	-51.912479
4237.304688	-51.214382
4238.281250	-49.342655
4239.257812	-52.360928
4240.234375	-49.565636
4241.210938	-49.700665
4242.187500	-51.135952
4243.164062	-51.750721
4244.140625	-49.724560
4245.117188	-50.769928
4246.093750	-51.255627
4247.070312	-51.013443
4248.046875	-50.960747
4249.023438	-48.083080
4250.000000	-48.067451
4250.976562	-51.844685
4251.953125	-50.372066
4252.929688	-49.035236
4253.906250	-52.666058
4254.882812	-51.692532
4255.859375	-51.731140
4256.835938	-51.170319
4257.812500	-49.527309
4258.789062	-50.762920
4259.765625	-48.798126
4260.742188	-48.938545
4261.718750	-50.052101
4262.695312	-49.837120
4263.671875	-51.576183
4264.648438	-51.369705
4265.625000	-49.427059
4266.601562	-49.653576
4267.578125	-49.056305
4268.554688	-51.099102
4269.531250	-49.847073
4270.507812	-50.095028
4271.484375	-50.377728
4272.460938	-46.905727
4273.437500	-47.595123
4274.414062	-49.733898
4275.390625	-51.767097
4276.367188	-48.166176
4277.343750	-50.504696
4278.320312	-50.784492
4279.296875	-50.163265
4280.273438	-51.240440
4281.250000	-49.643238
4282.226562	-50.232475
4283.203125	-47.857056
4284.179688	-48.600559
4285.156250	-50.715614
4286.132812	-49.846298
4287.109375	-50.858032
4288.085938	-50.714874
4289.062500	-49.986748
4290.039062	-49.817780
4291.015625	-50.942650
4291.992188	-48.245171
4292.968750	-49.506771
4293.945312	-48.602959
4294.921875	-50.141323
4295.898438	-49.134117
4296.875000	-46.795189
4297.851562	-49.225494
4298.828125	-49.248516
4299.804688	-48.062458
4300.781250	-48.059147
4301.757812	-49.450180
4302.734375	-48.497215
4303.710938	-48.877689
4304.687500	-48.512707
4305.664062	-48.006989
4306.640625	-46.601036
4307.617188	-47.974274
4308.593750	-48.879902
4309.570312	-47.791073
4310.546875	-46.194183
4311.523438	-46.484074
4312.500000	-48.695568
4313.476562	-47.795589
4314.453125	-48.250549
4315.429688	-46.017330
4316.406250	-47.810886
4317.382812	-45.725552
4318.359375	-46.962040
4319.335938	-47.026703
4320.312500	-47.443180
4321.289062	-47.000462
4322.265625	-46.869686
4323.242188	-47.083183
4324.218750	-47.675030
4325.195312	-47.930740
4326.171875	-46.079796
4327.148438	-48.167923
4328.125000	-48.618279
4329.101562	-46.813938
4330.078125	-46.645035
4331.054688	-48.354820
4332.031250	-46.878426
4333.007812	-46.159138
4333.984375	-47.377293
4334.960938	-48.075996
4335.937500	-46.389717
4336.914062	-46.723133
4337.890625	-47.997051
4338.867188	-46.421570
4339.843750	-47.503651
4340.820312	-47.068481
4341.796875	-46.363632
4342.773438	-45.470814
4343.750000	-46.809689
4344.726562	-46.105694
4345.703125	-44.966228
4346.679688	-44.536552
4347.656250	-45.889858
4348.632812	-45.677608
4349.609375	-44.609425
4350.585938	-46.371368
4351.562500	-44.674782
4352.539062	-46.137848
4353.515625	-43.990826
4354.492188	-44.530537
4355.468750	-44.890026
4356.445312	-45.867126
4357.421875	-44.364594
4358.398438	-43.760986
4359.375000	-44.722786
4360.351562	-46.106331
4361.328125	-46.140438
4362.304688	-46.038471
4363.281250	-45.809895
4364.257812	-46.198589
4365.234375	-46.418159
4366.210938	-46.859993
4367.187500	-45.636913
4368.164062	-46.112389
4369.140625	-46.838211
4370.117188	-46.373062
4371.093750	-46.316277
4372.070312	-45.866905
4373.046875	-46.743565
4374.023438	-45.608456
4375.000000	-46.550365
4375.976562	-46.651680
4376.953125	-46.308964
4377.929688	-46.359196
4378.906250	-46.667637
4379.882812	-47.279022
4380.859375	-47.349800
4381.835938	-47.440559
4382.812500	-48.003254
4383.789062	-48.621788
4384.765625	-48.179760
4385.742188	-47.044811
4386.718750	-47.025005
4387.695312	-47.530251
4388.671875	-47.472191
4389.648438	-46.570232
4390.625000	-48.074081
4391.601562	-47.627075
4392.578125	-46.438564
4393.554688	-48.403282
4394.531250	-48.257542
4395.507812	-48.718712
4396.484375	-48.443748
4397.460938	-48.594635
4398.437500	-48.881332
4399.414062	-48.329159
4400.390625	-47.823959
4401.367188	-47.643360
4402.343750	-47.900089
4403.320312	-47.449936
4404.296875	-47.967369
4405.273438	-46.989071
4406.250000	-47.441357
4407.226562	-47.780388
4408.203125	-47.787201
4409.179688	-48.357052
4410.156250	-48.528408
4411.132812	-48.213737
4412.109375	-47.895859
4413.085938	-48.347115
4414.062500	-48.088459
4415.039062	-47.300190
4416.015625	-49.536739
4416.992188	-48.383320
4417.968750	-48.365025
4418.945312	-48.481026
4419.921875	-48.369339
4420.898438	-48.259815
4421.875000	-49.076099
4422.851562	-49.536198
4423.828125	-49.065517
4424.804688	-48.708736
4425.781250	-48.984859
4426.757812	-48.023029
4427.734375	-48.184299
4428.710938	-47.676762
4429.687500	-47.951107
4430.664062	-49.046028
4431.640625	-49.057793
4432.617188	-49.260414
4433.593750	-48.609638
4434.570312	-49.553864
4435.546875	-48.937588
4436.523438	-49.323090
4437.500000	-48.874798
4438.476562	-48.054913
4439.453125	-47.899384
4440.429688	-48.276627
4441.406250	-48.491516
4442.382812	-49.060280
4443.359375	-48.789089
4444.335938	-48.876007
4445.312500	-48.256443
4446.289062	-48.280735
4447.265625	-47.774643
4448.242188	-48.289600
4449.218750	-49.262230
4450.195312	-48.590534
4451.171875	-48.411808
4452.148438	-48.972561
4453.125000	-49.219128
4454.101562	-48.062611
4455.078125	-48.059769
4456.054688	-49.181965
4457.031250	-49.634777
4458.007812	-48.069511
4458.984375	-47.667286
4459.960938	-47.615284
4460.937500	-47.953545
4461.914062	-48.995804
4462.890625	-48.399609
4463.867188	-48.427219
4464.843750	-48.482380
4465.820312	-48.650898
4466.796875	-47.392120
4467.773438	-47.854523
4468.750000	-47.833485
4469.726562	-47.449516
4470.703125	-46.719364
4471.679688	-47.216167
4472.656250	-47.178699
4473.632812	-46.629349
4474.609375	-46.349247
4475.585938	-48.447968
4476.562500	-47.605255
4477.539062	-47.044613
4478.515625	-46.803902
4479.492188	-47.197449
4480.468750	-46.273544
4481.445312	-46.749718
4482.421875	-46.288952
4483.398438	-46.562927
4484.375000	-47.015839
4485.351562	-47.537060
4486.328125	-45.498447
4487.304688	-46.573860
4488.281250	-46.444351
4489.257812	-45.731339
4490.234375	-45.818119
4491.210938	-44.425632
4492.187500	-46.800720
4493.164062	-46.211906
4494.140625	-45.985069
4495.117188	-46.197807
4496.093750	-45.784061
4497.070312	-45.306007
4498.046875	-44.621292
4499.023438	-44.585358
4500.000000	-44.576153
4500.976562	-44.184986
4501.953125	-44.951595
4502.929688	-44.413605
4503.906250	-45.375504
4504.882812	-42.948467
4505.859375	-43.882854
4506.835938	-45.127151
4507.812500	-43.923424
4508.789062	-43.903011
4509.765625	-44.010159
4510.742188	-44.142185
4511.718750	-43.528427
4512.695312	-43.647697
4513.671875	-45.331192
4514.648438	-45.015686
4515.625000	-43.453438
4516.601562	-44.594879
4517.578125	-44.170547
4518.554688	-43.314804
4519.531250	-44.049965
4520.507812	-44.277378
4521.484375	-43.552322
4522.460938	-45.254356
4523.437500	-44.959145
4524.414062	-44.045956
4525.390625	-43.458527
4526.367188	-43.290581
4527.343750	-44.024456
4528.320312	-44.395237
4529.296875	-43.732189
4530.273438	-43.381264
4531.250000	-43.694576
4532.226562	-44.193901
4533.203125	-44.016243
4534.179688	-43.241268
4535.156250	-42.689068
4536.132812	-43.584137
4537.109375	-44.320492
4538.085938	-43.051624
4539.062500	-43.614803
4540.039062	-44.626751
4541.015625	-44.138145
4541.992188	-43.055416
4542.968750	-44.313732
4543.945312	-44.635624
4544.921875	-43.708668
4545.898438	-44.497993
4546.875000	-42.643806
4547.851562	-42.469116
4548.828125	-43.914852
4549.804688	-42.339996
4550.781250	-43.052116
4551.757812	-43.702854
4552.734375	-43.802639
4553.710938	-42.559425
4554.687500	-44.004654
4555.664062	-44.571915
4556.640625	-42.941380
4557.617188	-44.882977
4558.593750	-44.207909
4559.570312	-43.470680
4560.546875	-43.572330
4561.523438	-44.052753
4562.500000	-42.706455
4563.476562	-43.318050
4564.453125	-44.798286
4565.429688	-43.317585
4566.406250	-42.752743
4567.382812	-46.025181
4568.359375	-45.371269
4569.335938	-44.071823
4570.312500	-44.075897
4571.289062	-43.629639
4572.265625	-43.331177
4573.242188	-44.194466
4574.218750	-43.281265
4575.195312	-44.760826
4576.171875	-42.719902
4577.148438	-43.647213
4578.125000	-43.800732
4579.101562	-43.954170
4580.078125	-44.613235
4581.054688	-45.031654
4582.031250	-44.996277
4583.007812	-46.179493
4583.984375	-45.704571
4584.960938	-44.268986
4585.937500	-45.696953
4586.914062	-44.296520
4587.890625	-43.446415
4588.867188	-44.462948
4589.843750	-46.832657
4590.820312	-46.532658
4591.796875	-46.718246
4592.773438	-44.102356
4593.750000	-46.041393
4594.726562	-47.003448
4595.703125	-46.054775
4596.679688	-46.405712
4597.656250	-44.521633
4598.632812	-47.149406
4599.609375	-45.135002
4600.585938	-44.676701
4601.562500	-46.757141
4602.539062	-46.690147
4603.515625	-46.347820
4604.492188	-44.575409
4605.468750	-46.359478
4606.445312	-46.402771
4607.421875	-46.448303
4608.398438	-46.363125
4609.375000	-46.829674
4610.351562	-48.061245
4611.328125	-45.914906
4612.304688	-46.557304
4613.281250	-46.103535
4614.257812	-46.494373
4615.234375	-47.875061
4616.210938	-46.567234
4617.187500	-47.222565
4618.164062	-48.708019
4619.140625	-47.661121
4620.117188	-46.054146
4621.093750	-46.862263
4622.070312	-48.258663
4623.046875	-47.210464
4624.023438	-46.347923
4625.000000	-47.705326
4625.976562	-47.424328
4626.953125	-47.625046
4627.929688	-46.270309
4628.906250	-50.106796
4629.882812	-48.534424
4630.859375	-48.229496
4631.835938	-48.035755
4632.812500	-47.831333
4633.789062	-49.196819
4634.765625	-47.153786
4635.742188	-48.681931
4636.718750	-50.838806
4637.695312	-48.418621
4638.671875	-47.807621
4639.648438	-49.955540
4640.625000	-49.003754
4641.601562	-49.510250
4642.578125	-47.640759
4643.554688	-48.476254
4644.531250	-50.314194
4645.507812	-49.929348
4646.484375	-48.680141
4647.460938	-47.994667
4648.437500	-49.517086
4649.414062	-50.353840
4650.390625	-50.164135
4651.367188	-51.863873
4652.343750	-50.904961
4653.320312	-51.411411
4654.296875	-51.468906
4655.273438	-51.814838
4656.250000	-49.941189
4657.226562	-47.022533
4658.203125	-50.370094
4659.179688	-51.052677
4660.156250	-51.906002
4661.132812	-51.072254
4662.109375	-50.796078
4663.085938	-50.033756
4664.062500	-51.145454
4665.039062	-49.680504
4666.015625	-49.901009
4666.992188	-49.562275
4667.968750	-49.752575
4668.945312	-50.324715
4669.921875	-51.220135
4670.898438	-52.011757
4671.875000	-50.538170
4672.851562	-50.224106
4673.828125	-51.423695
4674.804688	-51.582607
4675.781250	-51.044346
4676.757812	-51.755039
4677.734375	-50.873951
4678.710938	-51.187401
4679.687500	-50.345249
4680.664062	-51.049732
4681.640625	-51.657520
4682.617188	-50.830406
4683.593750	-52.046612
4684.570312	-51.193352
4685.546875	-52.175030
4686.523438	-51.725109
4687.500000	-50.968582
4688.476562	-51.940323
4689.453125	-51.808620
4690.429688	-50.808632
4691.406250	-52.424038
4692.382812	-52.827507
4693.359375	-52.057228
4694.335938	-51.727386
4695.312500	-52.400345
4696.289062	-52.619686
4697.265625	-52.479805
4698.242188	-50.796604
4699.218750	-52.556515
4700.195312	-53.137993
4701.171875	-52.631248
4702.148438	-51.961948
4703.125000	-52.499744
4704.101562	-52.999706
4705.078125	-52.570953
4706.054688	-52.017620
4707.031250	-52.374813
4708.007812	-52.505760
4708.984375	-53.095020
4709.960938	-51.998356
4710.937500	-51.744953
4711.914062	-53.232513
4712.890625	-52.472237
4713.867188	-52.756622
4714.843750	-51.783066
4715.820312	-53.490864
4716.796875	-52.761806
4717.773438	-53.106541
4718.750000	-52.294117
4719.726562	-51.967144
4720.703125	-52.671143
4721.679688	-52.519981
4722.656250	-52.162876
4723.632812	-53.319698
4724.609375	-52.191135
4725.585938	-50.479603
4726.562500	-50.861347
4727.539062	-52.199429
4728.515625	-51.791477
4729.492188	-53.258984
4730.468750	-52.494007
4731.445312	-53.124210
4732.421875	-52.336113
4733.398438	-51.978310
4734.375000	-52.597263
4735.351562	-52.371361
4736.328125	-52.521923
4737.304688	-54.318539
4738.281250	-52.077801
4739.257812	-53.190247
4740.234375	-52.973274
4741.210938	-50.147800
4742.187500	-52.660995
4743.164062	-51.629726
4744.140625	-51.894928
4745.117188	-53.007397
4746.093750	-54.052914
4747.070312	-52.476963
4748.046875	-51.471626
4749.023438	-53.232067
4750.000000	-53.576008
4750.976562	-50.793587
4751.953125	-52.672714
4752.929688	-52.976978
4753.906250	-52.357063
4754.882812	-52.577698
4755.859375	-53.661053
4756.835938	-53.524693
4757.812500	-52.326694
4758.789062	-53.497337
4759.765625	-53.126171
4760.742188	-54.057331
4761.718750	-52.591682
4762.695312	-52.476139
4763.671875	-52.134670
4764.648438	-53.295044
4765.625000	-54.210873
4766.601562	-52.163586
4767.578125	-51.952278
4768.554688	-52.124428
4769.531250	-52.310867
4770.507812	-51.895222
4771.484375	-52.148838
4772.460938	-53.320030
4773.437500	-52.773052
4774.414062	-53.681160
4775.390625	-53.264614
4776.367188	-52.755047
4777.343750	-51.843750
4778.320312	-53.226952
4779.296875	-53.309608
4780.273438	-51.978561
4781.250000	-53.476086
4782.226562	-54.460205
4783.203125	-53.379299
4784.179688	-54.673771
4785.156250	-54.503216
4786.132812	-53.699306
4787.109375	-52.877365
4788.085938	-52.334496
4789.062500	-53.318001
4790.039062	-53.565514
4791.015625	-53.128220
4791.992188	-53.946316
4792.968750	-53.745823
4793.945312	-52.915039
4794.921875	-53.723511
4795.898438	-54.199020
4796.875000	-54.611412
4797.851562	-53.573399
4798.828125	-53.670555
4799.804688	-53.072227
4800.781250	-53.635033
4801.757812	-54.092876
4802.734375	-53.606808
4803.710938	-54.314487
4804.687500	-52.470589
4805.664062	-54.560772
4806.640625	-54.803566
4807.617188	-53.953609
4808.593750	-52.139675
4809.570312	-52.765003
4810.546875	-53.550610
4811.523438	-54.655548
4812.500000	-52.391937
4813.476562	-52.162212
4814.453125	-53.517700
4815.429688	-54.774948
4816.406250	-53.813435
4817.382812	-52.816101
4818.359375	-53.631374
4819.335938	-54.434475
4820.312500	-54.493706
4821.289062	-52.958069
4822.265625	-53.469883
4823.242188	-54.551250
4824.218750	-53.498604
4825.195312	-54.071827
4826.171875	-53.230846
4827.148438	-52.170921
4828.125000	-53.331299
4829.101562	-52.521091
4830.078125	-53.687611
4831.054688	-54.096535
4832.031250	-55.350155
4833.007812	-53.483078
4833.984375	-53.511234
4834.960938	-54.811012
4835.937500	-54.607777
4836.914062	-52.880703
4837.890625	-52.388603
4838.867188	-54.767178
4839.843750	-53.691082
4840.820312	-54.411259
4841.796875	-54.414356
4842.773438	-54.180981
4843.750000	-52.605068
4844.726562	-52.542839
4845.703125	-53.872482
4846.679688	-54.026749
4847.656250	-55.273506
4848.632812	-55.489876
4849.609375	-53.553158
4850.585938	-54.385864
4851.562500	-55.418835
4852.539062	-55.072559
4853.515625	-52.696899
4854.492188	-51.937424
4855.468750	-54.527802
4856.445312	-52.814304
4857.421875	-53.420422
4858.398438	-53.364182
4859.375000	-53.196201
4860.351562	-53.673481
4861.328125	-54.757812
4862.304688	-54.154202
4863.281250	-54.401989
4864.257812	-53.300819
4865.234375	-54.478542
4866.210938	-54.432232
4867.187500	-54.798477
4868.164062	-53.900753
4869.140625	-53.940044
4870.117188	-53.846230
4871.093750	-53.823875
4872.070312	-53.012882
4873.046875	-52.739376
4874.023438	-54.256641
4875.000000	-53.327053
4875.976562	-54.854523
4876.953125	-54.551037
4877.929688	-54.624840
4878.906250	-55.945904
4879.882812	-54.590637
4880.859375	-53.511292
4881.835938	-52.171024
4882.812500	-53.423283
4883.789062	-53.723831
4884.765625	-54.117565
4885.742188	-53.127567
4886.718750	-53.664627
4887.695312	-56.079758
4888.671875	-55.093132
4889.648438	-55.669289
4890.625000	-53.694256
4891.601562	-54.739262
4892.578125	-53.916634
4893.554688	-54.683563
4894.531250	-53.389420
4895.507812	-53.558067
4896.484375	-55.816685
4897.460938	-53.620731
4898.437500	-54.289619
4899.414062	-53.523643
4900.390625	-53.444511
4901.367188	-55.741817
4902.343750	-54.196781
4903.320312	-53.271000
4904.296875	-54.322948
4905.273438	-54.900253
4906.250000	-53.763638
4907.226562	-52.484577
4908.203125	-52.522758
4909.179688	-55.137600
4910.156250	-54.463825
4911.132812	-53.952915
4912.109375	-54.017063
4913.085938	-55.512024
4914.062500	-54.169037
4915.039062	-54.336487
4916.015625	-54.439186
4916.992188	-54.379276
4917.968750	-55.926006
4918.945312	-55.359890
4919.921875	-54.541725
4920.898438	-54.461281
4921.875000	-55.178059
4922.851562	-53.091045
4923.828125	-54.167492
4924.804688	-54.469086
4925.781250	-55.533173
4926.757812	-52.337509
4927.734375	-53.614578
4928.710938	-53.766331
4929.687500	-54.765453
4930.664062	-54.947292
4931.640625	-53.304115
4932.617188	-54.745441
4933.593750	-55.473244
4934.570312	-54.410007
4935.546875	-54.527149
4936.523438	-55.024220
4937.500000	-55.014820
4938.476562	-53.624165
4939.453125	-55.377373
4940.429688	-54.291988
4941.406250	-53.038280
4942.382812	-53.791519
4943.359375	-55.850002
4944.335938	-54.438644
4945.312500	-54.869957
4946.289062	-55.307831
4947.265625	-53.854671
4948.242188	-53.946857
4949.218750	-53.240997
4950.195312	-53.666580
4951.171875	-54.004417
4952.148438	-55.404633
4953.125000	-54.858303
4954.101562	-54.412796
4955.078125	-55.466679
4956.054688	-55.902267
4957.031250	-55.982689
4958.007812	-55.300770
4958.984375	-54.499165
4959.960938	-55.200523
4960.937500	-53.911041
4961.914062	-53.049149
4962.890625	-54.234680
4963.867188	-54.022793
4964.843750	-56.140369
4965.820312	-55.810959
4966.796875	-55.432735
4967.773438	-55.000343
4968.750000	-54.934765
4969.726562	-55.240063
4970.703125	-55.925591
4971.679688	-53.476360
4972.656250	-52.586857
4973.632812	-53.392689
4974.609375	-54.848431
4975.585938	-55.325603
4976.562500	-55.665806
4977.539062	-55.100563
4978.515625	-54.991898
4979.492188	-52.262493
4980.468750	-54.546974
4981.445312	-54.277374
4982.421875	-54.722927
4983.398438	-54.004276
4984.375000	-54.419411
4985.351562	-54.716755
4986.328125	-56.523232
4987.304688	-55.145443
4988.281250	-54.787148
4989.257812	-55.144989
4990.234375	-55.572933
4991.210938	-55.536438
4992.187500	-54.554428
4993.164062	-53.710754
4994.140625	-54.706459
4995.117188	-54.735455
4996.093750	-54.546173
4997.070312	-55.879101
4998.046875	-54.426056
4999.023438	-55.694096
5000.000000	-55.337933
5000.976562	-54.031429
5001.953125	-54.207165
5002.929688	-55.033955
5003.906250	-53.982468
5004.882812	-52.682831
5005.859375	-53.300282
5006.835938	-54.037102
5007.812500	-55.100594
5008.789062	-54.402237
5009.765625	-54.820534
5010.742188	-55.241543
5011.718750	-53.551811
5012.695312	-55.532158
5013.671875	-54.375568
5014.648438	-54.617680
5015.625000	-54.856884
5016.601562	-54.738403
5017.578125	-55.319294
5018.554688	-53.504154
5019.531250	-54.449085
5020.507812	-55.229416
5021.484375	-54.941654
5022.460938	-54.126686
5023.437500	-54.960381
5024.414062	-55.138611
5025.390625	-53.759712
5026.367188	-53.551083
5027.343750	-53.570869
5028.320312	-52.958298
5029.296875	-53.730274
5030.273438	-53.772942
5031.250000	-51.560638
5032.226562	-53.476078
5033.203125	-53.538891
5034.179688	-52.366264
5035.156250	-53.086277
5036.132812	-53.002148
5037.109375	-53.347134
5038.085938	-53.816727
5039.062500	-53.856503
5040.039062	-54.129791
5041.015625	-54.466236
5041.992188	-54.502369
5042.968750	-53.823555
5043.945312	-52.338215
5044.921875	-52.573074
5045.898438	-52.694122
5046.875000	-54.585960
5047.851562	-54.426231
5048.828125	-53.935139
5049.804688	-54.165283
5050.781250	-53.707199
5051.757812	-53.286674
5052.734375	-53.374714
5053.710938	-52.270176
5054.687500	-52.993320
5055.664062	-54.115150
5056.640625	-51.249870
5057.617188	-52.249905
5058.593750	-52.797985
5059.570312	-52.451160
5060.546875	-52.076569
5061.523438	-52.476337
5062.500000	-53.641186
5063.476562	-51.390305
5064.453125	-52.266216
5065.429688	-52.141582
5066.406250	-51.776615
5067.382812	-52.321758
5068.359375	-52.035461
5069.335938	-51.246479
5070.312500	-51.229019
5071.289062	-53.227348
5072.265625	-51.975803
5073.242188	-53.267479
5074.218750	-52.818413
5075.195312	-52.754456
5076.171875	-53.627316
5077.148438	-50.992340
5078.125000	-53.916939
5079.101562	-53.149014
5080.078125	-51.606037
5081.054688	-52.808929
5082.031250	-53.381527
5083.007812	-52.078693
5083.984375	-50.387703
5084.960938	-53.171349
5085.937500	-53.393028
5086.914062	-53.177872
5087.890625	-52.563137
5088.867188	-52.309959
5089.843750	-54.139462
5090.820312	-53.412796
5091.796875	-52.340363
5092.773438	-50.744045
5093.750000	-51.565048
5094.726562	-53.317936
5095.703125	-52.467335
5096.679688	-52.371555
5097.656250	-53.695881
5098.632812	-52.533108
5099.609375	-52.477962
5100.585938	-53.076046
5101.562500	-51.692211
5102.539062	-52.792171
5103.515625	-51.665649
5104.492188	-52.361805
5105.468750	-52.669769
5106.445312	-52.300034
5107.421875	-52.740608
5108.398438	-52.019535
5109.375000	-53.316299
5110.351562	-52.347179
5111.328125	-52.821678
5112.304688	-52.584572
5113.281250	-52.694016
5114.257812	-52.946232
5115.234375	-52.968014
5116.210938	-51.996410
5117.187500	-53.109169
5118.164062	-54.349499
5119.140625	-53.893761
5120.117188	-52.135452
5121.093750	-54.064945
5122.070312	-51.672176
5123.046875	-52.911831
5124.023438	-53.561771
5125.000000	-52.185749
5125.976562	-52.037434
5126.953125	-52.277500
5127.929688	-52.806213
5128.906250	-53.500957
5129.882812	-52.591244
5130.859375	-52.606724
5131.835938	-53.271225
5132.812500	-52.352638
5133.789062	-52.945057
5134.765625	-52.162800
5135.742188	-53.074844
5136.718750	-52.479988
5137.695312	-53.624001
5138.671875	-51.776516
5139.648438	-52.614326
5140.625000	-53.986187
5141.601562	-53.779331
5142.578125	-52.960667
5143.554688	-53.146030
5144.531250	-52.062008
5145.507812	-51.958904
5146.484375	-52.439491
5147.460938	-52.067818
5148.437500	-51.923157
5149.414062	-53.119576
5150.390625	-52.863655
5151.367188	-52.897278
5152.343750	-51.922001
5153.320312	-53.396786
5154.296875	-52.319286
5155.273438	-53.321236
5156.250000	-52.596657
5157.226562	-53.837925
5158.203125	-54.453640
5159.179688	-52.997734
5160.156250	-52.636883
5161.132812	-53.075092
5162.109375	-52.372059
5163.085938	-53.940601
5164.062500	-53.279472
5165.039062	-52.773354
5166.015625	-52.649403
5166.992188	-52.358585
5167.968750	-52.544422
5168.945312	-52.253002
5169.921875	-51.490322
5170.898438	-52.441216
5171.875000	-52.733692
5172.851562	-52.183605
5173.828125	-52.202030
5174.804688	-52.225315
5175.781250	-53.104416
5176.757812	-52.487640
5177.734375	-52.833183
5178.710938	-52.707172
5179.687500	-52.171066
5180.664062	-52.432106
5181.640625	-52.721184
5182.617188	-52.546005
5183.593750	-51.906582
5184.570312	-52.121342
5185.546875	-51.562225
5186.523438	-51.217392
5187.500000	-52.637085
5188.476562	-51.544800
5189.453125	-51.645710
5190.429688	-50.403316
5191.406250	-52.657898
5192.382812	-51.368607
5193.359375	-50.166958
5194.335938	-52.066334
5195.312500	-50.869377
5196.289062	-51.707527
5197.265625	-51.379047
5198.242188	-51.591583
5199.218750	-52.440090
5200.195312	-50.792320
5201.171875	-49.978745
5202.148438	-52.200409
5203.125000	-51.346867
5204.101562	-52.379467
5205.078125	-52.579868
5206.054688	-50.979416
5207.031250	-52.374321
5208.007812	-51.493340
5208.984375	-51.205273
5209.960938	-51.986488
5210.937500	-50.330475
5211.914062	-50.937565
5212.890625	-51.138790
5213.867188	-53.056145
5214.843750	-52.121849
5215.820312	-50.399784
5216.796875	-50.576126
5217.773438	-51.356205
5218.750000	-50.592461
5219.726562	-51.405930
5220.703125	-50.274990
5221.679688	-50.527073
5222.656250	-51.055714
5223.632812	-49.695827
5224.609375	-50.090637
5225.585938	-50.854515
5226.562500	-52.059898
5227.539062	-50.641609
5228.515625	-51.174175
5229.492188	-51.178371
5230.468750	-51.098980
5231.445312	-50.473255
5232.421875	-51.018536
5233.398438	-50.339546
5234.375000	-48.934067
5235.351562	-49.499104
5236.328125	-49.727745
5237.304688	-50.673767
5238.281250	-49.554100
5239.257812	-50.469994
5240.234375	-50.322781
5241.210938	-49.164913
5242.187500	-51.038876
5243.164062	-50.371620
5244.140625	-49.479603
5245.117188	-51.881813
5246.093750	-49.344727
5247.070312	-49.287903
5248.046875	-48.972645
5249.023438	-50.120815
5250.000000	-50.147045
5250.976562	-49.621334
5251.953125	-49.273918
5252.929688	-48.202660
5253.906250	-50.230083
5254.882812	-49.949043
5255.859375	-49.892998
5256.835938	-49.059288
5257.812500	-48.765930
5258.789062	-49.524296
5259.765625	-48.267071
5260.742188	-49.275120
5261.718750	-50.493324
5262.695312	-49.344692
5263.671875	-50.403641
5264.648438	-48.518883
5265.625000	-49.831478
5266.601562	-48.512005
5267.578125	-48.694279
5268.554688	-49.225750
5269.531250	-49.586418
5270.507812	-48.404247
5271.484375	-48.637501
5272.460938	-48.954800
5273.437500	-50.116905
5274.414062	-49.046383
5275.390625	-50.243187
5276.367188	-49.946751
5277.343750	-48.154045
5278.320312	-49.135479
5279.296875	-49.148975
5280.273438	-50.656837
5281.250000	-48.671143
5282.226562	-48.904182
5283.203125	-49.226856
5284.179688	-48.870464
5285.156250	-48.876808
5286.132812	-47.771011
5287.109375	-48.578514
5288.085938	-48.337517
5289.062500	-50.045982
5290.039062	-49.865417
5291.015625	-48.781395
5291.992188	-49.077530
5292.968750	-49.398685
5293.945312	-48.054142
5294.921875	-49.871319
5295.898438	-48.216217
5296.875000	-47.886135
5297.851562	-48.019997
5298.828125	-48.900108
5299.804688	-47.515068
5300.781250	-49.174564
5301.757812	-48.162144
5302.734375	-48.718254
5303.710938	-49.264977
5304.687500	-47.683861
5305.664062	-48.730133
5306.640625	-49.034374
5307.617188	-48.293270
5308.593750	-49.198658
5309.570312	-48.272209
5310.546875	-48.965111
5311.523438	-49.088871
5312.500000	-48.610794
5313.476562	-47.585400
5314.453125	-47.813034
5315.429688	-49.094883
5316.406250	-48.311195
5317.382812	-48.253632
5318.359375	-46.614601
5319.335938	-49.099533
5320.312500	-48.172779
5321.289062	-46.218380
5322.265625	-47.256596
5323.242188	-48.938858
5324.218750	-48.317852
5325.195312	-47.400867
5326.171875	-46.886486
5327.148438	-48.220394
5328.125000	-47.809723
5329.101562	-47.324188
5330.078125	-46.843731
5331.054688	-47.888210
5332.031250	-47.126404
5333.007812	-46.997005
5333.984375	-45.653694
5334.960938	-47.749866
5335.937500	-49.001064
5336.914062	-47.970257
5337.890625	-47.742336
5338.867188	-45.165352
5339.843750	-49.025070
5340.820312	-48.048603
5341.796875	-48.674038
5342.773438	-46.548927
5343.750000	-48.970345
5344.726562	-47.520580
5345.703125	-48.062168
5346.679688	-47.331402
5347.656250	-48.066898
5348.632812	-46.520306
5349.609375	-47.037212
5350.585938	-47.170265
5351.562500	-49.307602
5352.539062	-48.463772
5353.515625	-47.460495
5354.492188	-47.481083
5355.468750	-48.595016
5356.445312	-47.757668
5357.421875	-46.222694
5358.398438	-48.900261
5359.375000	-48.042339
5360.351562	-46.810207
5361.328125	-48.856216
5362.304688	-48.698463
5363.281250	-47.530800
5364.257812	-47.657246
5365.234375	-46.948978
5366.210938	-46.535564
5367.187500	-46.032749
5368.164062	-48.866215
5369.140625	-46.532146
5370.117188	-46.841843
5371.093750	-46.257641
5372.070312	-47.276222
5373.046875	-47.407913
5374.023438	-47.556820
5375.000000	-46.889935
5375.976562	-46.885078
5376.953125	-47.283951
5377.929688	-47.133728
5378.906250	-46.895214
5379.882812	-46.486694
5380.859375	-47.457500
5381.835938	-47.302593
5382.812500	-46.478447
5383.789062	-47.272522
5384.765625	-46.004738
5385.742188	-45.578812
5386.718750	-45.574482
5387.695312	-47.411690
5388.671875	-46.902042
5389.648438	-47.342896
5390.625000	-45.850922
5391.601562	-45.631874
5392.578125	-45.752087
5393.554688	-45.422424
5394.531250	-45.105133
5395.507812	-46.241444
5396.484375	-46.353134
5397.460938	-45.240788
5398.437500	-45.249386
5399.414062	-45.831215
5400.390625	-46.088661
5401.367188	-45.675293
5402.343750	-45.382103
5403.320312	-45.754284
5404.296875	-46.045746
5405.273438	-46.003109
5406.250000	-46.139187
5407.226562	-45.591484
5408.203125	-45.817051
5409.179688	-46.444153
5410.156250	-45.104794
5411.132812	-45.633511
5412.109375	-45.437889
5413.085938	-45.264786
5414.062500	-45.507149
5415.039062	-44.469875
5416.015625	-44.427586
5416.992188	-45.832886
5417.968750	-46.247746
5418.945312	-44.508774
5419.921875	-44.409199
5420.898438	-45.603676
5421.875000	-45.525017
5422.851562	-44.735619
5423.828125	-45.198002
5424.804688	-44.861023
5425.781250	-44.187996
5426.757812	-44.167061
5427.734375	-43.173996
5428.710938	-43.495747
5429.687500	-43.987022
5430.664062	-41.903313
5431.640625	-41.243607
5432.617188	-43.794674
5433.593750	-43.356804
5434.570312	-42.210316
5435.546875	-40.234936
5436.523438	-43.122604
5437.500000	-41.768372
5438.476562	-41.964951
5439.453125	-42.480400
5440.429688	-42.218979
5441.406250	-40.049938
5442.382812	-41.508678
5443.359375	-41.861263
5444.335938	-43.393314
5445.312500	-40.359795
5446.289062	-40.236076
5447.265625	-41.954361
5448.242188	-41.863525
5449.218750	-42.467056
5450.195312	-41.070896
5451.171875	-39.948795
5452.148438	-41.387390
5453.125000	-42.193340
5454.101562	-41.048370
5455.078125	-41.060398
5456.054688	-41.386345
5457.031250	-41.484634
5458.007812	-41.043190
5458.984375	-41.594624
5459.960938	-40.292614
5460.937500	-40.272739
5461.914062	-41.133430
5462.890625	-40.182785
5463.867188	-41.345234
5464.843750	-41.594173
5465.820312	-41.240082
5466.796875	-40.150726
5467.773438	-41.807777
5468.750000	-41.514294
5469.726562	-39.763325
5470.703125	-40.970314
5471.679688	-39.953747
5472.656250	-40.129677
5473.632812	-39.977467
5474.609375	-40.478432
5475.585938	-41.066990
5476.562500	-40.938869
5477.539062	-41.534828
5478.515625	-40.889019
5479.492188	-41.848110
5480.468750	-41.211128
5481.445312	-40.666397
5482.421875	-40.339966
5483.398438	-40.755081
5484.375000	-41.020721
5485.351562	-39.372223
5486.328125	-39.008442
5487.304688	-39.177540
5488.281250	-38.225826
5489.257812	-40.295525
5490.234375	-40.038441
5491.210938	-40.179432
5492.187500	-40.298641
5493.164062	-39.530830
5494.140625	-41.260693
5495.117188	-40.831512
5496.093750	-39.464310
5497.070312	-40.979115
5498.046875	-39.941315
5499.023438	-39.771458
5500.000000	-38.855751
5500.976562	-40.289314
5501.953125	-39.515999
5502.929688	-38.734707
5503.906250	-38.446575
5504.882812	-38.431671
5505.859375	-37.002254
5506.835938	-38.579929
5507.812500	-37.632488
5508.789062	-39.633553
5509.765625	-38.814873
5510.742188	-40.057117
5511.718750	-38.938633
5512.695312	-38.664543
5513.671875	-38.796520
5514.648438	-39.564072
5515.625000	-39.749126
5516.601562	-38.485897
5517.578125	-38.325333
5518.554688	-38.315296
5519.531250	-38.532036
5520.507812	-38.873497
5521.484375	-38.042194
5522.460938	-37.732712
5523.437500	-37.795818
5524.414062	-38.061192
5525.390625	-39.778839
5526.367188	-40.159424
5527.343750	-40.063812
5528.320312	-40.239254
5529.296875	-38.859989
5530.273438	-39.653461
5531.250000	-38.803867
5532.226562	-39.011555
5533.203125	-38.021416
5534.179688	-39.488438
5535.156250	-39.740417
5536.132812	-38.579292
5537.109375	-39.151840
5538.085938	-39.761200
5539.062500	-38.399963
5540.039062	-38.509388
5541.015625	-40.105667
5541.992188	-39.397385
5542.968750	-40.014481
5543.945312	-38.562016
5544.921875	-38.728168
5545.898438	-39.774158
5546.875000	-39.997684
5547.851562	-38.552666
5548.828125	-39.925179
5549.804688	-40.171959
5550.781250	-39.732494
5551.757812	-40.026623
5552.734375	-39.332703
5553.710938	-38.875652
5554.687500	-39.603722
5555.664062	-38.936214
5556.640625	-39.441216
5557.617188	-39.305061
5558.593750	-39.218678
5559.570312	-39.694874
5560.546875	-39.935059
5561.523438	-40.467815
5562.500000	-39.250191
5563.476562	-39.751972
5564.453125	-40.504093
5565.429688	-39.700649
5566.406250	-39.421387
5567.382812	-39.982414
5568.359375	-39.680195
5569.335938	-40.627747
5570.312500	-39.920338
5571.289062	-39.487988
5572.265625	-40.609894
5573.242188	-39.774460
5574.218750	-38.548508
5575.195312	-39.728821
5576.171875	-40.813305
5577.148438	-40.275471
5578.125000	-40.249878
5579.101562	-40.234623
5580.078125	-39.742352
5581.054688	-39.519630
5582.031250	-40.759651
5583.007812	-41.431293
5583.984375	-41.121986
5584.960938	-39.992096
5585.937500	-40.167976
5586.914062	-41.160362
5587.890625	-40.086964
5588.867188	-39.973621
5589.843750	-40.100712
5590.820312	-40.087673
5591.796875	-39.520447
5592.773438	-39.461460
5593.750000	-40.705059
5594.726562	-40.461601
5595.703125	-41.086151
5596.679688	-40.521347
5597.656250	-40.277634
5598.632812	-40.821018
5599.609375	-40.418236
5600.585938	-40.367481
5601.562500	-40.945396
5602.539062	-40.834202
5603.515625	-40.523415
5604.492188	-41.282558
5605.468750	-40.765739
5606.445312	-40.228760
5607.421875	-39.758728
5608.398438	-40.299454
5609.375000	-40.320213
5610.351562	-40.036888
5611.328125	-40.108543
5612.304688	-40.613335
5613.281250	-41.619923
5614.257812	-39.836308
5615.234375	-40.092487
5616.210938	-40.613544
5617.187500	-40.979233
5618.164062	-40.862080
5619.140625	-39.692207
5620.117188	-40.163582
5621.093750	-40.957214
5622.070312	-40.004623
5623.046875	-40.123566
5624.023438	-40.565491
5625.000000	-41.255318
5625.976562	-39.228420
5626.953125	-39.768555
5627.929688	-40.510971
5628.906250	-40.284931
5629.882812	-39.957878
5630.859375	-40.156235
5631.835938	-39.963680
5632.812500	-40.693573
5633.789062	-40.304268
5634.765625	-39.216206
5635.742188	-39.306305
5636.718750	-40.817417
5637.695312	-40.723282
5638.671875	-39.867531
5639.648438	-39.444843
5640.625000	-41.072033
5641.601562	-40.614723
5642.578125	-40.316498
5643.554688	-40.998215
5644.531250	-41.516911
5645.507812	-41.649521
5646.484375	-41.591194
5647.460938	-41.073933
5648.437500	-40.690063
5649.414062	-41.317383
5650.390625	-40.437927
5651.367188	-42.182541
5652.343750	-40.858513
5653.320312	-40.371723
5654.296875	-41.444389
5655.273438	-40.852566
5656.250000	-40.227203
5657.226562	-41.729492
5658.203125	-40.476803
5659.179688	-40.763363
5660.156250	-42.281235
5661.132812	-42.453728
5662.109375	-42.158482
5663.085938	-41.546200
5664.062500	-41.038177
5665.039062	-41.572392
5666.015625	-40.936100
5666.992188	-41.998047
5667.968750	-42.995426
5668.945312	-42.440315
5669.921875	-42.405563
5670.898438	-41.175915
5671.875000	-43.491421
5672.851562	-43.531921
5673.828125	-41.858791
5674.804688	-43.546715
5675.781250	-43.781952
5676.757812	-43.512154
5677.734375	-42.494179
5678.710938	-43.455364
5679.687500	-43.647011
5680.664062	-43.460938
5681.640625	-43.138378
5682.617188	-42.552387
5683.593750	-44.367813
5684.570312	-43.075928
5685.546875	-40.727207
5686.523438	-43.839970
5687.500000	-43.744549
5688.476562	-41.425446
5689.453125	-42.262363
5690.429688	-44.579273
5691.406250	-43.773693
5692.382812	-42.159977
5693.359375	-43.800274
5694.335938	-44.601089
5695.312500	-44.494919
5696.289062	-43.811543
5697.265625	-45.810032
5698.242188	-45.684071
5699.218750	-46.072891
5700.195312	-43.677185
5701.171875	-45.264778
5702.148438	-44.201290
5703.125000	-43.634071
5704.101562	-45.091278
5705.078125	-45.203812
5706.054688	-43.743694
5707.031250	-42.922680
5708.007812	-44.544308
5708.984375	-47.087788
5709.960938	-46.653881
5710.937500	-44.807640
5711.914062	-46.248325
5712.890625	-47.205986
5713.867188	-46.166790
5714.843750	-45.517944
5715.820312	-46.693226
5716.796875	-47.483288
5717.773438	-46.356773
5718.750000	-45.131058
5719.726562	-45.807838
5720.703125	-45.940445
5721.679688	-46.042614
5722.656250	-44.823627
5723.632812	-46.839989
5724.609375	-47.302959
5725.585938	-46.214417
5726.562500	-45.234570
5727.539062	-46.780010
5728.515625	-47.510296
5729.492188	-48.878746
5730.468750	-47.693615
5731.445312	-49.278778
5732.421875	-47.000908
5733.398438	-45.202972
5734.375000	-46.881523
5735.351562	-48.385315
5736.328125	-47.909786
5737.304688	-49.141998
5738.281250	-47.524784
5739.257812	-48.924427
5740.234375	-48.106667
5741.210938	-47.192699
5742.187500	-48.462345
5743.164062	-48.778679
5744.140625	-47.354202
5745.117188	-47.526165
5746.093750	-46.108406
5747.070312	-47.685234
5748.046875	-48.453999
5749.023438	-48.442699
5750.000000	-49.072681
5750.976562	-50.484131
5751.953125	-50.294708
5752.929688	-47.564133
5753.906250	-48.930214
5754.882812	-48.534988
5755.859375	-46.364243
5756.835938	-48.700783
5757.812500	-47.619724
5758.789062	-50.069450
5759.765625	-50.651802
5760.742188	-51.185177
5761.718750	-50.006161
5762.695312	-50.749432
5763.671875	-50.362080
5764.648438	-48.973804
5765.625000	-49.918503
5766.601562	-50.148876
5767.578125	-51.197842
5768.554688	-50.552864
5769.531250	-50.818810
5770.507812	-50.791428
5771.484375	-48.886593
5772.460938	-51.997543
5773.437500	-51.481754
5774.414062	-49.745029
5775.390625	-50.141548
5776.367188	-50.976364
5777.343750	-49.578594
5778.320312	-49.632477
5779.296875	-49.322399
5780.273438	-51.608192
5781.250000	-51.302521
5782.226562	-50.868320
5783.203125	-51.222008
5784.179688	-50.293503
5785.156250	-50.773239
5786.132812	-51.093826
5787.109375	-51.669224
5788.085938	-51.131966
5789.062500	-50.893375
5790.039062	-50.591522
5791.015625	-51.238556
5791.992188	-51.115578
5792.968750	-51.027977
5793.945312	-50.951618
5794.921875	-51.597206
5795.898438	-51.074650
5796.875000	-50.857159
5797.851562	-50.662689
5798.828125	-52.253944
5799.804688	-51.742805
5800.781250	-51.209736
5801.757812	-51.721046
5802.734375	-51.883526
5803.710938	-51.861401
5804.687500	-51.935726
5805.664062	-51.644394
5806.640625	-50.490742
5807.617188	-51.927094
5808.593750	-51.405182
5809.570312	-52.186535
5810.546875	-52.548805
5811.523438	-51.415020
5812.500000	-52.004578
5813.476562	-50.306835
5814.453125	-49.942795
5815.429688	-50.529411
5816.406250	-51.109161
5817.382812	-52.448208
5818.359375	-51.502048
5819.335938	-50.960167
5820.312500	-51.215031
5821.289062	-50.837048
5822.265625	-51.206696
5823.242188	-50.755539
5824.218750	-50.743088
5825.195312	-52.671173
5826.171875	-51.701939
5827.148438	-52.400612
5828.125000	-51.706547
5829.101562	-52.155670
5830.078125	-52.416580
5831.054688	-53.111057
5832.031250	-51.104885
5833.007812	-52.875378
5833.984375	-50.319141
5834.960938	-51.191223
5835.937500	-51.428539
5836.914062	-50.670097
5837.890625	-51.230228
5838.867188	-52.184166
5839.843750	-51.343075
5840.820312	-51.988091
5841.796875	-50.905361
5842.773438	-51.497181
5843.750000	-51.031818
5844.726562	-52.534325
5845.703125	-52.657166
5846.679688	-51.814716
5847.656250	-51.774029
5848.632812	-51.936371
5849.609375	-52.865082
5850.585938	-51.110031
5851.562500	-53.135315
5852.539062	-52.824158
5853.515625	-53.114193
5854.492188	-52.268307
5855.468750	-54.071827
5856.445312	-50.477268
5857.421875	-52.858772
5858.398438	-52.821068
5859.375000	-53.608047
5860.351562	-51.894756
5861.328125	-52.613655
5862.304688	-51.907433
5863.281250	-51.925880
5864.257812	-50.211746
5865.234375	-51.614799
5866.210938	-51.932446
5867.187500	-52.357727
5868.164062	-51.824009
5869.140625	-52.597710
5870.117188	-51.548615
5871.093750	-51.710400
5872.070312	-52.202736
5873.046875	-51.763870
5874.023438	-52.365784
5875.000000	-52.532646
5875.976562	-53.868015
5876.953125	-51.410053
5877.929688	-53.222309
5878.906250	-53.825687
5879.882812	-53.963673
5880.859375	-53.863892
5881.835938	-52.826546
5882.812500	-53.014008
5883.789062	-53.726933
5884.765625	-53.475006
5885.742188	-53.191746
5886.718750	-53.838932
5887.695312	-54.080547
5888.671875	-54.569603
5889.648438	-53.326946
5890.625000	-52.829227
5891.601562	-54.751133
5892.578125	-53.075340
5893.554688	-54.489815
5894.531250	-54.246639
5895.507812	-53.663536
5896.484375	-53.855774
5897.460938	-54.161018
5898.437500	-53.655758
5899.414062	-54.441010
5900.390625	-54.798161
5901.367188	-53.620487
5902.343750	-53.720680
5903.320312	-54.381985
5904.296875	-54.783386
5905.273438	-54.660389
5906.250000	-53.178642
5907.226562	-53.412086
5908.203125	-54.822578
5909.179688	-54.260384
5910.156250	-56.622166
5911.132812	-55.347202
5912.109375	-54.077965
5913.085938	-53.880592
5914.062500	-54.276745
5915.039062	-53.233368
5916.015625	-53.372623
5916.992188	-53.770134
5917.968750	-53.588543
5918.945312	-54.739582
5919.921875	-54.586136
5920.898438	-53.903450
5921.875000	-53.735905
5922.851562	-53.593754
5923.828125	-55.555096
5924.804688	-55.397423
5925.781250	-54.796509
5926.757812	-55.689598
5927.734375	-55.571884
5928.710938	-53.723808
5929.687500	-54.947861
5930.664062	-56.684101
5931.640625	-55.113106
5932.617188	-55.503704
5933.593750	-55.460091
5934.570312	-55.884369
5935.546875	-54.635860
5936.523438	-54.753437
5937.500000	-56.118172
5938.476562	-56.394783
5939.453125	-55.488712
5940.429688	-55.510880
5941.406250	-55.004749
5942.382812	-54.843815
5943.359375	-55.540409
5944.335938	-55.919151
5945.312500	-55.418125
5946.289062	-54.540081
5947.265625	-54.781471
5948.242188	-54.775715
5949.218750	-55.510433
5950.195312	-55.530476
5951.171875	-55.279682
5952.148438	-55.416668
5953.125000	-55.166485
5954.101562	-55.164921
5955.078125	-54.833973
5956.054688	-55.560612
5957.031250	-54.899193
5958.007812	-55.474998
5958.984375	-55.013508
5959.960938	-54.756180
5960.937500	-54.489746
5961.914062	-54.589039
5962.890625	-55.372967
5963.867188	-56.805393
5964.843750	-55.768875
5965.820312	-55.161667
5966.796875	-54.138561
5967.773438	-55.805580
5968.750000	-55.239815
5969.726562	-54.439308
5970.703125	-55.263641
5971.679688	-55.635624
5972.656250	-54.186066
5973.632812	-54.863266
5974.609375	-55.914326
5975.585938	-55.631756
5976.562500	-55.354366
5977.539062	-53.624401
5978.515625	-54.764954
5979.492188	-56.326653
5980.468750	-54.507015
5981.445312	-55.802650
5982.421875	-55.298634
5983.398438	-55.840256
5984.375000	-55.681740
5985.351562	-54.831333
5986.328125	-55.999577
5987.304688	-54.664066
5988.281250	-55.176395
5989.257812	-54.929241
5990.234375	-54.938828
5991.210938	-55.923565
5992.187500	-54.431328
5993.164062	-56.206917
5994.140625	-54.789227
5995.117188	-54.194267
5996.093750	-54.864746
5997.070312	-54.397652
5998.046875	-54.984306
5999.023438	-55.335991
6000.000000	-55.563110
6000.976562	-56.188553
6001.953125	-55.341541
6002.929688	-55.231056
6003.906250	-54.605709
6004.882812	-54.660110
6005.859375	-53.966240
6006.835938	-54.380703
6007.812500	-54.525673
6008.789062	-55.294384
6009.765625	-54.746506
6010.742188	-54.624203
6011.718750	-56.057533
6012.695312	-55.461681
6013.671875	-56.090630
6014.648438	-56.198059
6015.625000	-55.359325
6016.601562	-57.386600
6017.578125	-54.660572
6018.554688	-54.230526
6019.531250	-55.448116
6020.507812	-55.319412
6021.484375	-55.240841
6022.460938	-55.868221
6023.437500	-54.648380
6024.414062	-55.326031
6025.390625	-54.379559
6026.367188	-54.600456
6027.343750	-55.380173
6028.320312	-54.905773
6029.296875	-54.613979
6030.273438	-54.408749
6031.250000	-55.312977
6032.226562	-56.066849
6033.203125	-54.732834
6034.179688	-55.062843
6035.156250	-56.630978
6036.132812	-55.859863
6037.109375	-54.157417
6038.085938	-55.080757
6039.062500	-54.808868
6040.039062	-56.009956
6041.015625	-55.800549
6041.992188	-55.566761
6042.968750	-55.910152
6043.945312	-55.053196
6044.921875	-56.285908
6045.898438	-55.210419
6046.875000	-54.703621
6047.851562	-55.563683
6048.828125	-55.790085
6049.804688	-55.732460
6050.781250	-55.147430
6051.757812	-55.455673
6052.734375	-55.947605
6053.710938	-54.604286
6054.687500	-55.930477
6055.664062	-56.442932
6056.640625	-55.849777
6057.617188	-55.829189
6058.593750	-55.331390
6059.570312	-56.100254
6060.546875	-55.887306
6061.523438	-55.272942
6062.500000	-55.678829
6063.476562	-55.165489
6064.453125	-54.298523
6065.429688	-55.062420
6066.406250	-54.919197
6067.382812	-55.099583
6068.359375	-55.363590
6069.335938	-54.722275
6070.312500	-54.299454
6071.289062	-55.503094
6072.265625	-56.279427
6073.242188	-56.305889
6074.218750	-54.782375
6075.195312	-55.484257
6076.171875	-56.291973
6077.148438	-54.707703
6078.125000	-54.971012
6079.101562	-54.789272
6080.078125	-55.190052
6081.054688	-54.307011
6082.031250	-55.787941
6083.007812	-55.549377
6083.984375	-55.844501
6084.960938	-56.296619
6085.937500	-56.234905
6086.914062	-55.571861
6087.890625	-55.523556
6088.867188	-56.191631
6089.843750	-56.437717
6090.820312	-56.421379
6091.796875	-54.548195
6092.773438	-55.358425
6093.750000	-55.327065
6094.726562	-55.705482
6095.703125	-55.377335
6096.679688	-54.821781
6097.656250	-54.753201
6098.632812	-54.929623
6099.609375	-54.652447
6100.585938	-55.921871
6101.562500	-55.572365
6102.539062	-55.402958
6103.515625	-55.305550
6104.492188	-55.578194
6105.468750	-55.960796
6106.445312	-55.458813
6107.421875	-56.032413
6108.398438	-55.639759
6109.375000	-55.224670
6110.351562	-54.698315
6111.328125	-54.773010
6112.304688	-55.237751
6113.281250	-53.964687
6114.257812	-55.246876
6115.234375	-55.883026
6116.210938	-54.376293
6117.187500	-55.295345
6118.164062	-54.746147
6119.140625	-55.220131
6120.117188	-55.858299
6121.093750	-54.606579
6122.070312	-54.632439
6123.046875	-55.964092
6124.023438	-55.212006
6125.000000	-54.119289
6125.976562	-53.784210
6126.953125	-53.649734
6127.929688	-53.788670
6128.906250	-54.361794
6129.882812	-54.592194
6130.859375	-54.199654
6131.835938	-53.956535
6132.812500	-55.158913
6133.789062	-55.117428
6134.765625	-55.274738
6135.742188	-54.004578
6136.718750	-54.436565
6137.695312	-53.746658
6138.671875	-54.273720
6139.648438	-54.049885
6140.625000	-54.709091
6141.601562	-54.518715
6142.578125	-54.311745
6143.554688	-54.569427
6144.531250	-53.407856
6145.507812	-55.801949
6146.484375	-55.551849
6147.460938	-54.230736
6148.437500	-52.761166
6149.414062	-54.681534
6150.390625	-54.638329
6151.367188	-55.127178
6152.343750	-54.923233
6153.320312	-55.088875
6154.296875	-54.461224
6155.273438	-53.580952
6156.250000	-53.814548
6157.226562	-55.128632
6158.203125	-54.006184
6159.179688	-54.108627
6160.156250	-54.131889
6161.132812	-54.631367
6162.109375	-54.596664
6163.085938	-53.950062
6164.062500	-53.990166
6165.039062	-54.637169
6166.015625	-53.705208
6166.992188	-54.053333
6167.968750	-54.488674
6168.945312	-54.214275
6169.921875	-54.598167
6170.898438	-55.091267
6171.875000	-55.553310
6172.851562	-54.160870
6173.828125	-54.254326
6174.804688	-53.252731
6175.781250	-53.544998
6176.757812	-54.233635
6177.734375	-54.533527
6178.710938	-53.744160
6179.687500	-54.120407
6180.664062	-54.783043
6181.640625	-55.452496
6182.617188	-54.457150
6183.593750	-54.349430
6184.570312	-53.564194
6185.546875	-54.765781
6186.523438	-53.463524
6187.500000	-54.731213
6188.476562	-54.552643
6189.453125	-54.336483
6190.429688	-54.698406
6191.406250	-54.225315
6192.382812	-54.530735
6193.359375	-54.234638
6194.335938	-53.939579
6195.312500	-54.394093
6196.289062	-55.130077
6197.265625	-55.222263
6198.242188	-53.645618
6199.218750	-53.201996
6200.195312	-54.130913
6201.171875	-53.889668
6202.148438	-53.548073
6203.125000	-53.800907
6204.101562	-54.397259
6205.078125	-53.538651
6206.054688	-54.177494
6207.031250	-53.188145
6208.007812	-54.826523
6208.984375	-54.626663
6209.960938	-54.314793
6210.937500	-53.817383
6211.914062	-54.866821
6212.890625	-54.699532
6213.867188	-54.301289
6214.843750	-54.463909
6215.820312	-54.174942
6216.796875	-54.608196
6217.773438	-55.618206
6218.750000	-54.919628
6219.726562	-54.944038
6220.703125	-55.221428
6221.679688	-55.639194
6222.656250	-52.730114
6223.632812	-53.636913
6224.609375	-54.851257
6225.585938	-54.262428
6226.562500	-53.233154
6227.539062	-53.499062
6228.515625	-54.310909
6229.492188	-53.385334
6230.468750	-54.502243
6231.445312	-53.348484
6232.421875	-53.937965
6233.398438	-54.544399
6234.375000	-55.359375
6235.351562	-54.298664
6236.328125	-53.886665
6237.304688	-53.479561
6238.281250	-53.190659
6239.257812	-53.859730
6240.234375	-54.106083
6241.210938	-54.221058
6242.187500	-53.386852
6243.164062	-53.287796
6244.140625	-53.401096
6245.117188	-53.046688
6246.093750	-53.996227
6247.070312	-55.203121
6248.046875	-55.087997
6249.023438	-54.634182
6250.000000	-53.871994
6250.976562	-53.665005
6251.953125	-54.909107
6252.929688	-54.796108
6253.906250	-53.835293
6254.882812	-55.273773
6255.859375	-54.236015
6256.835938	-53.446133
6257.812500	-54.842354
6258.789062	-54.161484
6259.765625	-54.529358
6260.742188	-54.318451
6261.718750	-53.928608
6262.695312	-54.562027
6263.671875	-54.851097
6264.648438	-53.744026
6265.625000	-54.107883
6266.601562	-54.090984
6267.578125	-53.309872
6268.554688	-53.913097
6269.531250	-53.733013
6270.507812	-52.601448
6271.484375	-53.196609
6272.460938	-53.400928
6273.437500	-53.615982
6274.414062	-53.254448
6275.390625	-52.715347
6276.367188	-52.630859
6277.343750	-53.136581
6278.320312	-52.856171
6279.296875	-52.716736
6280.273438	-53.393799
6281.250000	-54.301186
6282.226562	-54.388016
6283.203125	-53.768909
6284.179688	-54.080734
6285.156250	-54.664516
6286.132812	-53.737896
6287.109375	-54.011185
6288.085938	-53.810257
6289.062500	-52.739532
6290.039062	-53.334270
6291.015625	-54.050148
6291.992188	-53.594444
6292.968750	-53.347778
6293.945312	-54.140430
6294.921875	-55.050053
6295.898438	-53.991329
6296.875000	-54.303558
6297.851562	-53.905647
6298.828125	-54.232132
6299.804688	-54.339657
6300.781250	-53.140087
6301.757812	-54.054161
6302.734375	-54.204758
6303.710938	-53.398979
6304.687500	-55.053970
6305.664062	-54.302090
6306.640625	-53.248013
6307.617188	-53.676289
6308.593750	-53.997002
6309.570312	-53.860470
6310.546875	-53.837368
6311.523438	-54.198700
6312.500000	-53.432697
6313.476562	-52.795914
6314.453125	-53.623726
6315.429688	-53.157238
6316.406250	-52.630543
6317.382812	-52.935081
6318.359375	-52.991745
6319.335938	-54.078304
6320.312500	-51.751045
6321.289062	-51.758060
6322.265625	-54.383457
6323.242188	-54.005688
6324.218750	-52.799061
6325.195312	-52.213661
6326.171875	-53.361614
6327.148438	-53.763783
6328.125000	-52.704689
6329.101562	-53.184544
6330.078125	-53.788567
6331.054688	-53.237022
6332.031250	-53.995770
6333.007812	-52.393890
6333.984375	-51.179287
6334.960938	-52.692043
6335.937500	-54.205833
6336.914062	-53.764721
6337.890625	-53.690487
6338.867188	-52.603622
6339.843750	-53.602131
6340.820312	-54.309929
6341.796875	-53.985737
6342.773438	-52.554615
6343.750000	-52.645596
6344.726562	-52.794060
6345.703125	-53.103107
6346.679688	-52.348190
6347.656250	-52.697186
6348.632812	-53.483513
6349.609375	-52.202633
6350.585938	-53.945362
6351.562500	-53.846558
6352.539062	-52.663780
6353.515625	-52.364494
6354.492188	-53.006130
6355.468750	-52.750748
6356.445312	-53.437588
6357.421875	-53.596390
6358.398438	-53.847187
6359.375000	-54.264549
6360.351562	-53.337452
6361.328125	-53.959053
6362.304688	-53.406872
6363.281250	-52.568039
6364.257812	-51.802879
6365.234375	-52.207523
6366.210938	-53.963509
6367.187500	-51.803852
6368.164062	-52.141396
6369.140625	-53.049042
6370.117188	-52.165859
6371.093750	-53.566513
6372.070312	-53.469639
6373.046875	-53.408356
6374.023438	-52.812126
6375.000000	-53.042034
6375.976562	-53.336464
6376.953125	-53.854313
6377.929688	-53.499249
6378.906250	-53.325397
6379.882812	-53.573631
6380.859375	-51.828445
6381.835938	-51.033695
6382.812500	-52.783203
6383.789062	-54.678638
6384.765625	-52.900978
6385.742188	-53.633385
6386.718750	-52.166035
6387.695312	-51.115280
6388.671875	-52.497467
6389.648438	-52.279785
6390.625000	-52.759640
6391.601562	-52.511387
6392.578125	-53.150166
6393.554688	-51.878597
6394.531250	-52.260811
6395.507812	-52.326904
6396.484375	-51.997063
6397.460938	-51.816074
6398.437500	-53.129444
6399.414062	-53.255154
6400.390625	-52.703598
6401.367188	-52.307388
6402.343750	-52.989906
6403.320312	-51.799564
6404.296875	-52.377205
6405.273438	-52.939320
6406.250000	-52.192303
6407.226562	-52.747421
6408.203125	-52.010490
6409.179688	-52.209507
6410.156250	-51.522720
6411.132812	-52.125847
6412.109375	-52.292641
6413.085938	-51.873653
6414.062500	-52.713108
6415.039062	-52.777603
6416.015625	-52.549385
6416.992188	-52.142887
6417.968750	-52.466316
6418.945312	-52.458477
6419.921875	-52.873772
6420.898438	-54.046413
6421.875000	-51.953308
6422.851562	-54.612934
6423.828125	-53.448792
6424.804688	-53.540218
6425.781250	-52.663071
6426.757812	-53.013084
6427.734375	-53.411118
6428.710938	-52.995068
6429.687500	-52.349266
6430.664062	-52.126286
6431.640625	-51.585438
6432.617188	-51.865849
6433.593750	-51.607002
6434.570312	-52.747429
6435.546875	-51.814049
6436.523438	-52.153011
6437.500000	-53.410267
6438.476562	-52.416748
6439.453125	-51.867813
6440.429688	-53.131355
6441.406250	-52.597733
6442.382812	-52.236912
6443.359375	-52.286777
6444.335938	-52.128666
6445.312500	-51.023720
6446.289062	-51.931702
6447.265625	-51.693436
6448.242188	-52.295589
6449.218750	-51.265713
6450.195312	-50.985172
6451.171875	-52.471588
6452.148438	-52.259365
6453.125000	-52.720425
6454.101562	-51.313725
6455.078125	-52.184341
6456.054688	-51.602947
6457.031250	-50.977928
6458.007812	-50.597965
6458.984375	-50.429440
6459.960938	-50.787197
6460.937500	-50.051769
6461.914062	-51.898830
6462.890625	-51.461018
6463.867188	-51.065121
6464.843750	-49.715874
6465.820312	-51.590565
6466.796875	-51.696835
6467.773438	-50.990490
6468.750000	-50.112328
6469.726562	-51.200584
6470.703125	-49.621315
6471.679688	-50.110474
6472.656250	-50.910439
6473.632812	-51.520493
6474.609375	-50.433907
6475.585938	-49.756668
6476.562500	-51.548866
6477.539062	-53.055748
6478.515625	-51.546925
6479.492188	-51.088058
6480.468750	-50.088211
6481.445312	-50.001568
6482.421875	-50.790314
6483.398438	-50.135777
6484.375000	-50.606064
6485.351562	-49.537411
6486.328125	-50.522552
6487.304688	-49.675606
6488.281250	-50.443588
6489.257812	-49.922104
6490.234375	-50.017998
6491.210938	-51.600842
6492.187500	-51.035946
6493.164062	-51.321396
6494.140625	-50.286644
6495.117188	-50.636620
6496.093750	-50.390217
6497.070312	-51.018848
6498.046875	-50.215271
6499.023438	-49.878708
6500.000000	-50.615707
6500.976562	-51.313564
6501.953125	-51.035633
6502.929688	-49.792648
6503.906250	-50.947102
6504.882812	-50.807972
6505.859375	-49.576485
6506.835938	-49.527195
6507.812500	-50.740669
6508.789062	-49.387619
6509.765625	-50.800190
6510.742188	-49.633457
6511.718750	-50.510483
6512.695312	-49.819427
6513.671875	-48.322685
6514.648438	-50.574867
6515.625000	-50.834045
6516.601562	-47.829266
6517.578125	-47.757565
6518.554688	-49.690826
6519.531250	-49.481495
6520.507812	-47.420326
6521.484375	-49.200748
6522.460938	-49.100430
6523.437500	-50.194080
6524.414062	-47.901665
6525.390625	-48.190681
6526.367188	-49.266891
6527.343750	-49.010822
6528.320312	-49.505753
6529.296875	-47.973240
6530.273438	-47.561096
6531.250000	-48.898685
6532.226562	-47.415257
6533.203125	-48.971054
6534.179688	-49.272636
6535.156250	-49.084324
6536.132812	-48.706585
6537.109375	-49.723770
6538.085938	-49.077000
6539.062500	-48.746944
6540.039062	-48.577038
6541.015625	-49.769333
6541.992188	-49.941154
6542.968750	-48.730244
6543.945312	-49.513336
6544.921875	-49.553989
6545.898438	-48.516277
6546.875000	-49.261066
6547.851562	-49.534256
6548.828125	-48.522923
6549.804688	-48.850330
6550.781250	-48.992504
6551.757812	-48.272156
6552.734375	-50.295567
6553.710938	-48.987747
6554.687500	-49.656422
6555.664062	-48.758141
6556.640625	-49.117664
6557.617188	-49.367756
6558.593750	-50.615261
6559.570312	-49.906494
6560.546875	-50.002312
6561.523438	-49.408184
6562.500000	-48.730366
6563.476562	-50.321426
6564.453125	-49.288002
6565.429688	-50.996746
6566.406250	-50.817291
6567.382812	-50.631817
6568.359375	-49.102482
6569.335938	-50.981274
6570.312500	-50.576366
6571.289062	-50.050419
6572.265625	-50.450062
6573.242188	-51.021450
6574.218750	-50.399284
6575.195312	-50.871159
6576.171875	-50.915436
6577.148438	-51.469048
6578.125000	-50.521648
6579.101562	-50.767132
6580.078125	-50.266388
6581.054688	-50.808140
6582.031250	-51.443447
6583.007812	-50.248215
6583.984375	-50.990101
6584.960938	-51.359272
6585.937500	-51.318565
6586.914062	-50.593937
6587.890625	-51.581783
6588.867188	-51.702236
6589.843750	-51.665359
6590.820312	-52.031269
6591.796875	-51.525055
6592.773438	-50.966839
6593.750000	-50.369469
6594.726562	-51.415764
6595.703125	-50.869747
6596.679688	-51.372604
6597.656250	-50.187721
6598.632812	-50.703712
6599.609375	-50.733212
6600.585938	-51.714226
6601.562500	-51.949169
6602.539062	-50.906185
6603.515625	-52.040810
6604.492188	-51.314514
6605.468750	-51.147091
6606.445312	-50.940628
6607.421875	-51.159237
6608.398438	-50.835182
6609.375000	-50.506264
6610.351562	-50.849400
6611.328125	-51.150284
6612.304688	-51.306900
6613.281250	-51.234348
6614.257812	-50.577099
6615.234375	-50.202930
6616.210938	-51.386803
6617.187500	-52.026512
6618.164062	-51.250656
6619.140625	-51.041168
6620.117188	-50.788025
6621.093750	-52.118397
6622.070312	-51.997375
6623.046875	-51.133949
6624.023438	-51.608231
6625.000000	-50.951408
6625.976562	-50.144463
6626.953125	-51.619064
6627.929688	-51.781242
6628.906250	-51.624565
6629.882812	-51.870186
6630.859375	-51.620743
6631.835938	-52.085209
6632.812500	-52.768547
6633.789062	-52.450348
6634.765625	-51.747124
6635.742188	-51.923798
6636.718750	-51.199257
6637.695312	-52.217381
6638.671875	-51.223324
6639.648438	-51.782200
6640.625000	-51.627621
6641.601562	-51.328762
6642.578125	-51.854866
6643.554688	-51.864201
6644.531250	-51.470371
6645.507812	-51.916660
6646.484375	-52.202450
6647.460938	-52.195637
6648.437500	-51.918610
6649.414062	-51.130871
6650.390625	-52.161098
6651.367188	-51.286316
6652.343750	-51.639458
6653.320312	-51.353844
6654.296875	-51.648689
6655.273438	-51.723053
6656.250000	-51.429947
6657.226562	-51.902248
6658.203125	-51.220757
6659.179688	-52.205292
6660.156250	-51.580349
6661.132812	-51.943104
6662.109375	-51.277164
6663.085938	-51.856056
6664.062500	-51.595242
6665.039062	-51.736950
6666.015625	-52.096695
6666.992188	-51.007431
6667.968750	-51.266296
6668.945312	-51.803776
6669.921875	-50.625813
6670.898438	-50.887299
6671.875000	-51.027901
6672.851562	-51.316620
6673.828125	-51.447433
6674.804688	-51.515888
6675.781250	-52.036034
6676.757812	-52.474617
6677.734375	-51.597069
6678.710938	-51.314224
6679.687500	-51.539165
6680.664062	-51.412659
6681.640625	-50.991211
6682.617188	-51.192051
6683.593750	-51.509140
6684.570312	-51.216602
6685.546875	-50.895531
6686.523438	-51.846519
6687.500000	-51.057232
6688.476562	-51.965847
6689.453125	-51.624790
6690.429688	-51.005730
6691.406250	-50.528149
6692.382812	-52.202080
6693.359375	-51.028084
6694.335938	-51.160435
6695.312500	-51.159378
6696.289062	-51.160622
6697.265625	-50.292892
6698.242188	-51.253151
6699.218750	-51.292866
6700.195312	-51.515854
6701.171875	-51.121346
6702.148438	-51.189365
6703.125000	-50.767723
6704.101562	-51.235012
6705.078125	-50.541332
6706.054688	-50.201748
6707.031250	-52.084412
6708.007812	-51.459843
6708.984375	-50.511673
6709.960938	-50.142559
6710.937500	-50.611385
6711.914062	-51.018272
6712.890625	-49.959114
6713.867188	-51.152840
6714.843750	-50.966766
6715.820312	-50.901306
6716.796875	-50.406368
6717.773438	-50.333351
6718.750000	-50.582962
6719.726562	-49.932175
6720.703125	-49.690624
6721.679688	-50.893921
6722.656250	-50.466965
6723.632812	-49.028465
6724.609375	-48.794258
6725.585938	-50.297451
6726.562500	-50.167507
6727.539062	-50.252937
6728.515625	-50.634995
6729.492188	-49.261711
6730.468750	-50.199547
6731.445312	-49.984455
6732.421875	-49.988697
6733.398438	-49.471889
6734.375000	-49.910244
6735.351562	-49.914383
6736.328125	-49.145489
6737.304688	-49.481117
6738.281250	-49.222229
6739.257812	-49.692944
6740.234375	-48.624210
6741.210938	-48.296440
6742.187500	-49.744034
6743.164062	-50.501598
6744.140625	-48.932228
6745.117188	-48.738194
6746.093750	-48.898632
6747.070312	-47.957554
6748.046875	-48.973339
6749.023438	-49.047234
6750.000000	-48.588806
6750.976562	-49.743942
6751.953125	-49.621647
6752.929688	-48.978752
6753.906250	-48.329391
6754.882812	-48.165970
6755.859375	-47.046173
6756.835938	-47.291866
6757.812500	-47.595684
6758.789062	-48.920345
6759.765625	-48.598675
6760.742188	-47.954929
6761.718750	-47.772305
6762.695312	-47.966633
6763.671875	-48.125484
6764.648438	-47.770992
6765.625000	-46.176865
6766.601562	-48.017559
6767.578125	-48.949368
6768.554688	-48.806458
6769.531250	-47.006454
6770.507812	-47.723507
6771.484375	-48.028336
6772.460938	-49.155807
6773.437500	-48.002583
6774.414062	-49.440594
6775.390625	-50.196674
6776.367188	-47.988945
6777.343750	-47.471188
6778.320312	-47.979027
6779.296875	-47.230633
6780.273438	-47.559723
6781.250000	-48.242245
6782.226562	-47.399094
6783.203125	-48.510704
6784.179688	-48.396915
6785.156250	-46.802956
6786.132812	-47.871960
6787.109375	-49.560604
6788.085938	-48.025330
6789.062500	-48.916821
6790.039062	-48.164490
6791.015625	-50.236988
6791.992188	-48.234150
6792.968750	-48.696560
6793.945312	-49.629177
6794.921875	-49.660103
6795.898438	-47.396870
6796.875000	-47.840450
6797.851562	-47.794216
6798.828125	-48.702694
6799.804688	-46.419983
6800.781250	-47.006863
6801.757812	-46.601513
6802.734375	-46.727692
6803.710938	-48.397713
6804.687500	-48.880558
6805.664062	-48.633240
6806.640625	-48.479759
6807.617188	-47.712833
6808.593750	-47.939335
6809.570312	-47.702187
6810.546875	-48.523643
6811.523438	-47.661568
6812.500000	-48.170399
6813.476562	-48.217030
6814.453125	-48.813850
6815.429688	-49.543373
6816.406250	-48.828411
6817.382812	-49.436176
6818.359375	-48.740330
6819.335938	-48.410793
6820.312500	-47.543709
6821.289062	-48.161285
6822.265625	-47.344059
6823.242188	-47.263073
6824.218750	-46.011955
6825.195312	-46.736248
6826.171875	-47.650703
6827.148438	-48.368393
6828.125000	-48.266571
6829.101562	-49.397751
6830.078125	-49.276222
6831.054688	-48.650841
6832.031250	-48.982841
6833.007812	-48.031715
6833.984375	-47.033127
6834.960938	-48.652817
6835.937500	-48.547337
6836.914062	-48.837906
6837.890625	-47.489914
6838.867188	-49.485435
6839.843750	-49.695316
6840.820312	-49.117382
6841.796875	-47.614811
6842.773438	-48.829426
6843.750000	-49.648312
6844.726562	-48.425964
6845.703125	-49.472450
6846.679688	-48.303383
6847.656250	-48.295406
6848.632812	-48.205868
6849.609375	-47.865101
6850.585938	-49.811638
6851.562500	-47.298359
6852.539062	-49.493061
6853.515625	-49.107521
6854.492188	-49.227909
6855.468750	-49.500793
6856.445312	-51.304470
6857.421875	-48.619514
6858.398438	-47.928169
6859.375000	-48.792828
6860.351562	-49.319977
6861.328125	-48.682007
6862.304688	-49.130939
6863.281250	-49.199127
6864.257812	-49.121414
6865.234375	-47.747879
6866.210938	-50.477825
6867.187500	-49.652905
6868.164062	-49.666122
6869.140625	-49.503239
6870.117188	-50.542828
6871.093750	-49.989315
6872.070312	-49.582401
6873.046875	-49.631432
6874.023438	-50.072582
6875.000000	-50.326004
6875.976562	-50.791149
6876.953125	-50.655510
6877.929688	-50.503952
6878.906250	-51.687618
6879.882812	-51.105934
6880.859375	-50.811611
6881.835938	-49.999454
6882.812500	-50.237537
6883.789062	-51.500076
6884.765625	-51.265362
6885.742188	-52.026295
6886.718750	-52.061512
6887.695312	-52.632149
6888.671875	-50.890957
6889.648438	-50.552521
6890.625000	-52.756760
6891.601562	-51.341839
6892.578125	-51.194157
6893.554688	-49.718254
6894.531250	-51.002682
6895.507812	-51.391567
6896.484375	-50.265697
6897.460938	-51.450977
6898.437500	-51.907581
6899.414062	-51.669159
6900.390625	-52.303261
6901.367188	-52.987053
6902.343750	-52.694878
6903.320312	-54.367641
6904.296875	-52.655342
6905.273438	-52.282097
6906.250000	-52.531612
6907.226562	-51.588215
6908.203125	-52.689732
6909.179688	-52.437256
6910.156250	-52.155411
6911.132812	-53.476269
6912.109375	-54.211967
6913.085938	-52.760151
6914.062500	-53.185551
6915.039062	-51.695789
6916.015625	-52.790409
6916.992188	-51.929287
6917.968750	-53.193623
6918.945312	-52.802711
6919.921875	-53.925976
6920.898438	-52.873692
6921.875000	-54.014118
6922.851562	-54.140667
6923.828125	-53.566719
6924.804688	-53.369484
6925.781250	-53.425411
6926.757812	-53.492226
6927.734375	-54.083336
6928.710938	-53.975475
6929.687500	-53.489895
6930.664062	-54.421829
6931.640625	-54.872341
6932.617188	-53.585781
6933.593750	-54.712540
6934.570312	-53.764076
6935.546875	-53.636211
6936.523438	-54.017143
6937.500000	-54.729893
6938.476562	-54.747498
6939.453125	-54.188328
6940.429688	-54.536816
6941.406250	-56.820442
6942.382812	-54.529877
6943.359375	-56.018341
6944.335938	-54.793579
6945.312500	-53.634247
6946.289062	-55.937061
6947.265625	-54.891369
6948.242188	-55.474827
6949.218750	-54.928516
6950.195312	-56.344936
6951.171875	-55.933922
6952.148438	-55.891319
6953.125000	-55.831089
6954.101562	-54.137947
6955.078125	-55.624939
6956.054688	-55.720364
6957.031250	-56.451565
6958.007812	-55.167831
6958.984375	-56.080086
6959.960938	-57.680847
6960.937500	-55.469139
6961.914062	-55.887997
6962.890625	-56.594471
6963.867188	-56.007374
6964.843750	-56.386616
6965.820312	-55.992874
6966.796875	-55.411224
6967.773438	-55.636284
6968.750000	-56.481930
6969.726562	-56.787762
6970.703125	-55.319664
6971.679688	-55.456177
6972.656250	-56.142673
6973.632812	-55.937920
6974.609375	-57.138958
6975.585938	-57.290043
6976.562500	-56.772049
6977.539062	-56.219414
6978.515625	-57.011353
6979.492188	-56.016106
6980.468750	-57.315563
6981.445312	-55.991806
6982.421875	-57.069080
6983.398438	-56.901287
6984.375000	-57.749386
6985.351562	-56.263950
6986.328125	-57.282070
6987.304688	-57.086544
6988.281250	-57.138336
6989.257812	-57.223766
6990.234375	-56.251583
6991.210938	-57.761288
6992.187500	-57.260967
6993.164062	-54.774036
6994.140625	-57.013416
6995.117188	-55.400097
6996.093750	-55.315819
6997.070312	-54.700584
6998.046875	-57.936848
6999.023438	-57.365101
7000.000000	-57.528915
7000.976562	-56.655029
7001.953125	-57.481590
7002.929688	-57.977413
7003.906250	-55.914318
7004.882812	-56.440208
7005.859375	-56.817371
7006.835938	-56.376793
7007.812500	-56.703342
7008.789062	-57.117748
7009.765625	-56.921764
7010.742188	-56.581421
7011.718750	-57.636642
7012.695312	-56.700695
7013.671875	-56.763401
7014.648438	-57.633347
7015.625000	-57.292679
7016.601562	-57.942593
7017.578125	-57.560944
7018.554688	-57.795387
7019.531250	-57.935307
7020.507812	-55.729786
7021.484375	-57.563965
7022.460938	-58.390244
7023.437500	-56.742580
7024.414062	-56.125889
7025.390625	-57.417892
7026.367188	-57.089836
7027.343750	-57.446056
7028.320312	-57.017521
7029.296875	-56.470982
7030.273438	-57.290569
7031.250000	-57.552372
7032.226562	-57.396690
7033.203125	-57.406231
7034.179688	-57.336830
7035.156250	-57.459110
7036.132812	-57.424751
7037.109375	-57.823097
7038.085938	-57.909039
7039.062500	-56.730457
7040.039062	-57.340271
7041.015625	-57.226017
7041.992188	-57.564205
7042.968750	-57.852249
7043.945312	-56.608135
7044.921875	-57.254944
7045.898438	-57.065819
7046.875000	-57.234379
7047.851562	-57.322418
7048.828125	-57.304413
7049.804688	-56.869072
7050.781250	-58.102901
7051.757812	-58.103149
7052.734375	-57.315903
7053.710938	-57.856571
7054.687500	-57.245495
7055.664062	-57.312813
7056.640625	-56.818771
7057.617188	-56.812569
7058.593750	-57.673878
7059.570312	-57.975956
7060.546875	-56.944962
7061.523438	-57.023792
7062.500000	-58.377357
7063.476562	-57.543751
7064.453125	-57.268875
7065.429688	-58.274387
7066.406250	-59.091351
7067.382812	-57.753609
7068.359375	-58.020771
7069.335938	-58.212296
7070.312500	-57.946182
7071.289062	-58.507614
7072.265625	-58.225426
7073.242188	-58.666054
7074.218750	-57.612370
7075.195312	-58.077751
7076.171875	-58.193054
7077.148438	-58.107075
7078.125000	-59.115757
7079.101562	-59.917965
7080.078125	-58.072758
7081.054688	-58.623425
7082.031250	-58.472553
7083.007812	-60.243858
7083.984375	-57.198357
7084.960938	-57.501423
7085.937500	-57.860363
7086.914062	-59.840755
7087.890625	-59.028881
7088.867188	-57.637878
7089.843750	-58.731819
7090.820312	-58.932117
7091.796875	-59.572945
7092.773438	-58.267391
7093.750000	-58.745934
7094.726562	-58.532089
7095.703125	-57.632389
7096.679688	-59.317089
7097.656250	-58.748032
7098.632812	-58.535648
7099.609375	-59.080364
7100.585938	-61.286049
7101.562500	-59.520370
7102.539062	-58.898483
7103.515625	-58.428619
7104.492188	-59.741444
7105.468750	-59.321918
7106.445312	-59.780682
7107.421875	-59.253635
7108.398438	-59.205082
7109.375000	-60.079090
7110.351562	-59.341198
7111.328125	-59.162861
7112.304688	-61.351845
7113.281250	-59.326698
7114.257812	-60.081715
7115.234375	-58.545650
7116.210938	-60.078220
7117.187500	-59.929939
7118.164062	-59.687115
7119.140625	-59.487690
7120.117188	-59.532948
7121.093750	-59.804245
7122.070312	-58.263115
7123.046875	-59.498692
7124.023438	-59.717857
7125.000000	-59.045250
7125.976562	-58.918552
7126.953125	-58.845501
7127.929688	-60.135956
7128.906250	-59.722488
7129.882812	-60.924797
7130.859375	-59.873817
7131.835938	-60.220650
7132.812500	-59.750622
7133.789062	-60.373775
7134.765625	-59.955524
7135.742188	-60.213238
7136.718750	-61.673317
7137.695312	-60.077541
7138.671875	-61.190815
7139.648438	-60.684357
7140.625000	-60.120064
7141.601562	-60.061512
7142.578125	-61.280972
7143.554688	-60.241360
7144.531250	-60.001072
7145.507812	-61.747299
7146.484375	-60.872330
7147.460938	-60.016811
7148.437500	-60.153263
7149.414062	-61.846699
7150.390625	-60.472237
7151.367188	-61.449520
7152.343750	-60.956799
7153.320312	-60.643753
7154.296875	-61.054714
7155.273438	-61.774055
7156.250000	-62.040272
7157.226562	-60.807392
7158.203125	-61.425732
7159.179688	-61.114613
7160.156250	-60.485336
7161.132812	-59.988392
7162.109375	-61.692654
7163.085938	-60.037941
7164.062500	-59.697716
7165.039062	-60.442543
7166.015625	-59.532326
7166.992188	-61.015965
7167.968750	-60.715096
7168.945312	-59.693256
7169.921875	-61.790878
7170.898438	-61.044502
7171.875000	-61.448067
7172.851562	-59.514027
7173.828125	-59.789448
7174.804688	-60.375713
7175.781250	-60.592018
7176.757812	-60.035252
7177.734375	-60.228661
7178.710938	-61.751907
7179.687500	-62.238644
7180.664062	-61.098660
7181.640625	-60.821716
7182.617188	-62.100132
7183.593750	-61.041054
7184.570312	-60.789120
7185.546875	-61.686127
7186.523438	-62.139244
7187.500000	-61.290447
7188.476562	-61.502224
7189.453125	-61.472065
7190.429688	-61.366993
7191.406250	-61.614307
7192.382812	-62.259071
7193.359375	-60.927921
7194.335938	-60.979218
7195.312500	-61.297741
7196.289062	-60.753014
7197.265625	-60.078754
7198.242188	-60.124622
7199.218750	-62.438438
7200.195312	-60.676563
7201.171875	-60.726894
7202.148438	-61.023418
7203.125000	-62.365219
7204.101562	-62.365913
7205.078125	-61.536049
7206.054688	-60.766575
7207.031250	-60.934284
7208.007812	-61.478298
7208.984375	-61.522446
7209.960938	-60.645813
7210.937500	-60.964684
7211.914062	-60.725422
7212.890625	-61.236149
7213.867188	-61.604568
7214.843750	-61.015881
7215.820312	-61.007175
7216.796875	-61.370163
7217.773438	-61.169659
7218.750000	-61.693703
7219.726562	-60.642521
7220.703125	-60.187958
7221.679688	-62.013107
7222.656250	-60.794521
7223.632812	-61.207127
7224.609375	-61.160538
7225.585938	-61.406197
7226.562500	-61.784943
7227.539062	-61.373707
7228.515625	-60.215183
7229.492188	-60.918896
7230.468750	-61.855755
7231.445312	-61.517059
7232.421875	-60.047115
7233.398438	-60.333942
7234.375000	-60.818012
7235.351562	-61.306992
7236.328125	-61.891548
7237.304688	-60.465939
7238.281250	-60.999043
7239.257812	-60.911560
7240.234375	-61.241829
7241.210938	-61.174137
7242.187500	-61.547157
7243.164062	-60.282604
7244.140625	-60.538425
7245.117188	-62.217979
7246.093750	-62.320248
7247.070312	-62.152912
7248.046875	-62.475327
7249.023438	-62.261158
7250.000000	-62.548717
7250.976562	-62.113239
7251.953125	-61.569565
7252.929688	-60.515038
7253.906250	-62.678993
7254.882812	-61.045547
7255.859375	-61.837772
7256.835938	-60.719452
7257.812500	-62.073380
7258.789062	-62.798149
7259.765625	-61.929646
7260.742188	-61.420101
7261.718750	-62.283260
7262.695312	-61.974045
7263.671875	-61.910114
7264.648438	-62.418610
7265.625000	-62.843334
7266.601562	-62.176693
7267.578125	-61.563110
7268.554688	-62.609558
7269.531250	-62.136181
7270.507812	-62.003193
7271.484375	-62.442749
7272.460938	-60.774002
7273.437500	-61.558266
7274.414062	-61.737316
7275.390625	-61.237823
7276.367188	-63.125904
7277.343750	-61.879841
7278.320312	-62.022861
7279.296875	-62.040977
7280.273438	-62.126919
7281.250000	-61.268421
7282.226562	-62.190445
7283.203125	-62.154743
7284.179688	-61.777950
7285.156250	-61.519840
7286.132812	-61.395752
7287.109375	-62.230450
7288.085938	-61.682167
7289.062500	-63.577477
7290.039062	-62.282150
7291.015625	-62.595856
7291.992188	-63.353008
7292.968750	-64.493744
7293.945312	-63.693340
7294.921875	-61.948853
7295.898438	-62.843544
7296.875000	-63.066074
7297.851562	-62.891342
7298.828125	-63.036842
7299.804688	-63.387421
7300.781250	-63.597805
7301.757812	-63.378532
7302.734375	-62.313801
7303.710938	-62.066856
7304.687500	-62.520859
7305.664062	-62.726704
7306.640625	-63.341728
7307.617188	-64.341080
7308.593750	-63.628849
7309.570312	-63.304424
7310.546875	-64.066406
7311.523438	-63.466648
7312.500000	-62.488007
7313.476562	-63.640411
7314.453125	-63.794781
7315.429688	-64.487236
7316.406250	-63.696671
7317.382812	-63.336895
7318.359375	-64.045357
7319.335938	-63.802170
7320.312500	-64.943413
7321.289062	-63.179848
7322.265625	-62.809826
7323.242188	-63.377377
7324.218750	-63.694946
7325.195312	-64.150368
7326.171875	-63.993328
7327.148438	-63.624607
7328.125000	-63.731583
7329.101562	-64.769707
7330.078125	-63.858273
7331.054688	-63.811108
7332.031250	-63.688663
7333.007812	-63.359982
7333.984375	-63.467354
7334.960938	-63.215702
7335.937500	-64.255791
7336.914062	-63.400238
7337.890625	-64.468277
7338.867188	-64.378021
7339.843750	-64.032990
7340.820312	-64.038124
7341.796875	-64.546005
7342.773438	-64.268127
7343.750000	-64.620567
7344.726562	-64.632301
7345.703125	-64.786415
7346.679688	-64.161324
7347.656250	-64.923035
7348.632812	-66.179604
7349.609375	-64.297081
7350.585938	-64.189255
7351.562500	-64.684441
7352.539062	-65.287247
7353.515625	-64.867661
7354.492188	-63.885750
7355.468750	-63.751740
7356.445312	-65.250214
7357.421875	-64.921631
7358.398438	-65.052750
7359.375000	-64.663849
7360.351562	-65.027237
7361.328125	-64.717155
7362.304688	-63.838650
7363.281250	-64.831429
7364.257812	-66.122139
7365.234375	-65.590149
7366.210938	-65.396690
7367.187500	-64.969337
7368.164062	-65.146759
7369.140625	-65.997581
7370.117188	-65.136360
7371.093750	-65.505241
7372.070312	-65.304367
7373.046875	-66.343567
7374.023438	-65.225143
7375.000000	-65.675331
7375.976562	-65.353951
7376.953125	-65.904221
7377.929688	-65.070450
7378.906250	-65.637100
7379.882812	-65.571693
7380.859375	-64.842979
7381.835938	-66.108635
7382.812500	-65.031479
7383.789062	-65.658073
7384.765625	-64.901115
7385.742188	-66.181351
7386.718750	-65.770477
7387.695312	-65.384964
7388.671875	-64.922546
7389.648438	-65.729904
7390.625000	-65.310608
7391.601562	-65.152367
7392.578125	-65.776688
7393.554688	-65.884331
7394.531250	-66.019608
7395.507812	-66.385750
7396.484375	-66.890945
7397.460938	-67.916489
7398.437500	-67.277893
7399.414062	-66.949020
7400.390625	-66.008171
7401.367188	-66.989037
7402.343750	-66.176483
7403.320312	-66.603836
7404.296875	-66.297234
7405.273438	-66.529892
7406.250000	-66.553177
7407.226562	-66.178490
7408.203125	-66.055290
7409.179688	-66.436852
7410.156250	-66.590736
7411.132812	-66.653793
7412.109375	-67.480171
7413.085938	-67.882149
7414.062500	-67.028282
7415.039062	-67.230553
7416.015625	-66.525612
7416.992188	-67.426788
7417.968750	-67.025223
7418.945312	-67.234871
7419.921875	-67.143402
7420.898438	-67.459831
7421.875000	-67.169189
7422.851562	-67.230232
7423.828125	-67.199158
7424.804688	-68.181808
7425.781250	-67.972908
7426.757812	-67.859650
7427.734375	-66.877747
7428.710938	-68.383766
7429.687500	-68.109512
7430.664062	-66.995857
7431.640625	-68.314476
7432.617188	-67.763580
7433.593750	-67.997566
7434.570312	-68.025620
7435.546875	-67.946594
7436.523438	-68.739502
7437.500000	-67.870392
7438.476562	-68.013908
7439.453125	-68.287498
7440.429688	-68.914886
7441.406250	-68.882324
7442.382812	-68.732567
7443.359375	-69.018913
7444.335938	-68.932053
7445.312500	-69.037567
7446.289062	-68.820023
7447.265625	-68.556702
7448.242188	-68.963661
7449.218750	-70.031143
7450.195312	-69.206314
7451.171875	-68.664497
7452.148438	-68.847939
7453.125000	-69.963089
7454.101562	-69.169937
7455.078125	-68.177597
7456.054688	-68.709862
7457.031250	-70.018867
7458.007812	-69.042831
7458.984375	-68.747810
7459.960938	-69.914467
7460.937500	-69.459946
7461.914062	-69.662231
7462.890625	-69.053047
7463.867188	-69.075935
7464.843750	-69.939949
7465.820312	-69.195572
7466.796875	-69.502502
7467.773438	-69.909874
7468.750000	-70.085129
7469.726562	-69.496712
7470.703125	-69.921280
7471.679688	-69.567902
7472.656250	-69.322479
7473.632812	-69.381996
7474.609375	-69.591377
7475.585938	-69.760223
7476.562500	-69.442413
7477.539062	-70.648087
7478.515625	-70.446159
7479.492188	-70.470779
7480.468750	-70.995529
7481.445312	-71.288139
7482.421875	-71.520683
7483.398438	-70.226654
7484.375000	-71.916153
7485.351562	-71.206078
7486.328125	-71.507645
7487.304688	-71.434334
7488.281250	-71.309204
7489.257812	-71.512756
7490.234375	-70.447235
7491.210938	-70.814011
7492.187500	-70.237198
7493.164062	-71.938499
7494.140625	-71.797134
7495.117188	-70.908569
7496.093750	-71.679276
7497.070312	-72.481873
7498.046875	-71.413292
7499.023438	-72.218544
7500.000000	-72.311501
7500.976562	-70.757729
7501.953125	-72.192726
7502.929688	-71.727394
7503.906250	-71.596107
7504.882812	-71.524521
7505.859375	-71.657730
7506.835938	-71.607040
7507.812500	-72.064270
7508.789062	-71.953110
7509.765625	-73.020569
7510.742188	-72.698105
7511.718750	-72.389832
7512.695312	-72.725723
7513.671875	-72.431908
7514.648438	-72.862045
7515.625000	-73.713478
7516.601562	-73.231499
7517.578125	-72.858871
7518.554688	-73.070107
7519.531250	-73.657623
7520.507812	-73.661324
7521.484375	-73.185158
7522.460938	-73.823891
7523.437500	-73.606689
7524.414062	-73.123947
7525.390625	-73.861351
7526.367188	-73.728462
7527.343750	-72.786644
7528.320312	-72.190262
7529.296875	-73.606010
7530.273438	-73.727554
7531.250000	-73.905350
7532.226562	-73.517662
7533.203125	-73.429398
7534.179688	-74.497444
7535.156250	-74.437531
7536.132812	-75.327553
7537.109375	-74.199394
7538.085938	-73.558792
7539.062500	-74.691200
7540.039062	-74.446587
7541.015625	-74.725143
7541.992188	-73.471031
7542.968750	-75.571114
7543.945312	-75.268883
7544.921875	-74.640778
7545.898438	-74.671974
7546.875000	-75.109627
7547.851562	-75.355156
7548.828125	-74.727203
7549.804688	-75.493240
7550.781250	-75.679863
7551.757812	-74.693802
7552.734375	-75.067253
7553.710938	-75.362160
7554.687500	-74.753197
7555.664062	-75.168167
7556.640625	-75.476822
7557.617188	-74.573654
7558.593750	-75.698402
7559.570312	-75.011826
7560.546875	-75.391090
7561.523438	-75.630508
7562.500000	-75.246368
7563.476562	-75.758133
7564.453125	-74.961838
7565.429688	-75.821777
7566.406250	-76.082489
7567.382812	-75.431450
7568.359375	-76.656334
7569.335938	-76.017273
7570.312500	-76.503174
7571.289062	-75.730347
7572.265625	-76.201401
7573.242188	-76.102310
7574.218750	-77.017944
7575.195312	-76.351913
7576.171875	-76.579102
7577.148438	-77.040047
7578.125000	-76.764572
7579.101562	-76.468346
7580.078125	-77.397018
7581.054688	-76.781715
7582.031250	-77.261223
7583.007812	-76.571579
7583.984375	-76.856133
7584.960938	-76.879227
7585.937500	-76.434776
7586.914062	-76.588341
7587.890625	-77.463242
7588.867188	-77.388268
7589.843750	-76.796036
7590.820312	-77.343147
7591.796875	-77.083160
7592.773438	-76.359917
7593.750000	-76.680428
7594.726562	-77.034042
7595.703125	-77.923080
7596.679688	-77.750832
7597.656250	-76.916664
7598.632812	-76.880760
7599.609375	-77.214233
7600.585938	-77.010048
7601.562500	-77.644569
7602.539062	-76.932930
7603.515625	-77.187843
7604.492188	-78.211624
7605.468750	-77.485054
7606.445312	-76.451752
7607.421875	-77.255127
7608.398438	-77.710228
7609.375000	-77.481277
7610.351562	-77.349854
7611.328125	-77.694260
7612.304688	-77.527199
7613.281250	-77.980263
7614.257812	-77.992767
7615.234375	-78.083672
7616.210938	-77.282982
7617.187500	-77.503235
7618.164062	-77.916412
7619.140625	-78.049858
7620.117188	-77.904671
7621.093750	-77.269424
7622.070312	-77.180115
7623.046875	-77.358047
7624.023438	-77.724808
7625.000000	-78.443382
7625.976562	-77.775818
7626.953125	-77.857414
7627.929688	-77.876625
7628.906250	-77.829636
7629.882812	-78.512070
7630.859375	-79.023666
7631.835938	-78.464088
7632.812500	-78.370003
7633.789062	-77.633827
7634.765625	-78.489578
7635.742188	-78.843819
7636.718750	-78.331764
7637.695312	-78.114258
7638.671875	-78.384407
7639.648438	-78.808029
7640.625000	-79.357147
7641.601562	-78.581863
7642.578125	-78.217270
7643.554688	-78.846352
7644.531250	-78.857567
7645.507812	-78.567047
7646.484375	-78.773544
7647.460938	-78.966576
7648.437500	-78.933601
7649.414062	-78.897255
7650.390625	-79.282417
7651.367188	-79.279083
7652.343750	-79.159973
7653.320312	-79.134857
7654.296875	-79.131927
7655.273438	-79.535988
7656.250000	-79.227554
7657.226562	-79.305893
7658.203125	-78.979095
7659.179688	-79.336342
7660.156250	-79.143280
7661.132812	-79.620193
7662.109375	-79.328468
7663.085938	-79.430344
7664.062500	-79.587700
7665.039062	-79.347641
7666.015625	-79.303665
7666.992188	-79.461403
7667.968750	-79.322571
7668.945312	-79.952591
7669.921875	-79.668442
7670.898438	-79.256989
7671.875000	-79.852974
7672.851562	-79.674118
7673.828125	-79.992584
7674.804688	-79.646057
7675.781250	-79.561806
7676.757812	-79.694260
7677.734375	-79.819824
7678.710938	-79.913078
7679.687500	-79.844177
7680.664062	-79.658768
7681.640625	-79.473099
7682.617188	-79.607544
7683.593750	-80.127533
7684.570312	-79.915894
7685.546875	-79.871277
7686.523438	-80.043144
7687.500000	-80.368706
7688.476562	-79.872650
7689.453125	-80.157150
7690.429688	-80.067780
7691.406250	-80.170952
7692.382812	-79.939461
7693.359375	-80.158340
7694.335938	-80.102562
7695.312500	-80.293221
7696.289062	-80.139977
7697.265625	-79.801178
7698.242188	-79.867661
7699.218750	-80.206657
7700.195312	-80.431168
7701.171875	-79.917114
7702.148438	-80.268669
7703.125000	-80.163315
7704.101562	-80.111694
7705.078125	-80.223564
7706.054688	-79.815514
7707.031250	-80.283310
7708.007812	-80.247116
7708.984375	-80.250618
7709.960938	-80.423973
7710.937500	-80.310577
7711.914062	-80.343307
7712.890625	-80.174294
7713.867188	-80.375694
7714.843750	-80.329781
7715.820312	-80.244873
7716.796875	-80.342918
7717.773438	-80.200630
7718.750000	-80.436760
7719.726562	-80.191116
7720.703125	-80.457924
7721.679688	-80.253708
7722.656250	-80.223312
7723.632812	-80.444588
7724.609375	-80.509087
7725.585938	-80.400818
7726.562500	-80.388908
7727.539062	-80.244133
7728.515625	-80.361160
7729.492188	-80.400620
7730.468750	-80.268188
7731.445312	-80.332962
7732.421875	-80.396957
7733.398438	-80.360069
7734.375000	-80.437798
7735.351562	-80.491051
7736.328125	-80.475517
7737.304688	-80.447517
7738.281250	-80.466042
7739.257812	-80.548767
7740.234375	-80.480202
7741.210938	-80.576126
7742.187500	-80.547890
7743.164062	-80.528999
7744.140625	-80.437225
7745.117188	-80.335861
7746.093750	-80.537300
7747.070312	-80.551903
7748.046875	-80.349884
7749.023438	-80.561462
7750.000000	-80.538719
7750.976562	-80.536690
7751.953125	-80.535057
7752.929688	-80.525162
7753.906250	-80.582779
7754.882812	-80.579063
7755.859375	-80.616379
7756.835938	-80.583328
7757.812500	-80.648689
7758.789062	-80.553101
7759.765625	-80.619217
7760.742188	-80.549812
7761.718750	-80.599052
7762.695312	-80.605659
7763.671875	-80.701088
7764.648438	-80.667587
7765.625000	-80.595337
7766.601562	-80.583420
7767.578125	-80.624908
7768.554688	-80.644318
7769.531250	-80.500046
7770.507812	-80.610855
7771.484375	-80.589264
7772.460938	-80.532654
7773.437500	-80.658554
7774.414062	-80.574272
7775.390625	-80.643631
7776.367188	-80.678482
7777.343750	-80.585289
7778.320312	-80.661362
7779.296875	-80.631660
7780.273438	-80.533676
7781.250000	-80.605804
7782.226562	-80.613480
7783.203125	-80.687469
7784.179688	-80.597359
7785.156250	-80.547096
7786.132812	-80.712090
7787.109375	-80.660645
7788.085938	-80.600632
7789.062500	-80.653030
7790.039062	-80.663879
7791.015625	-80.634384
7791.992188	-80.643723
7792.968750	-80.626808
7793.945312	-80.646912
7794.921875	-80.607224
7795.898438	-80.657600
7796.875000	-80.621124
7797.851562	-80.588043
7798.828125	-80.677795
7799.804688	-80.601273
7800.781250	-80.653511
7801.757812	-80.631683
7802.734375	-80.645088
7803.710938	-80.664200
7804.687500	-80.627571
7805.664062	-80.648918
7806.640625	-80.649490
7807.617188	-80.684700
7808.593750	-80.632675
7809.570312	-80.643784
7810.546875	-80.645721
7811.523438	-80.630676
7812.500000	-80.662949
7813.476562	-80.680397
7814.453125	-80.634041
7815.429688	-80.664131
7816.406250	-80.657509
7817.382812	-80.639488
7818.359375	-80.649727
7819.335938	-80.656830
7820.312500	-80.658821
7821.289062	-80.641479
7822.265625	-80.662933
7823.242188	-80.654861
7824.218750	-80.666161
7825.195312	-80.669647
7826.171875	-80.644272
7827.148438	-80.644287
7828.125000	-80.678902
7829.101562	-80.665596
7830.078125	-80.668892
7831.054688	-80.670387
7832.031250	-80.653290
7833.007812	-80.670845
7833.984375	-80.678474
7834.960938	-80.685364
7835.937500	-80.654152
7836.914062	-80.689667
7837.890625	-80.676781
7838.867188	-80.659424
7839.843750	-80.656815
7840.820312	-80.665543
7841.796875	-80.657356
7842.773438	-80.668633
7843.750000	-80.665825
7844.726562	-80.675316
7845.703125	-80.674835
7846.679688	-80.672676
7847.656250	-80.677780
7848.632812	-80.660820
7849.609375	-80.670174
7850.585938	-80.670525
7851.562500	-80.677139
7852.539062	-80.671539
7853.515625	-80.673019
7854.492188	-80.680588
7855.468750	-80.675018
7856.445312	-80.680367
7857.421875	-80.679482
7858.398438	-80.677261
7859.375000	-80.673584
7860.351562	-80.671074
7861.328125	-80.675606
7862.304688	-80.687927
7863.281250	-80.667633
7864.257812	-80.680496
7865.234375	-80.670326
7866.210938	-80.671761
7867.187500	-80.679688
7868.164062	-80.684021
7869.140625	-80.677872
7870.117188	-80.674210
7871.093750	-80.677902
7872.070312	-80.688271
7873.046875	-80.670914
7874.023438	-80.682213
7875.000000	-80.682671
7875.976562	-80.683197
7876.953125	-80.682083
7877.929688	-80.675003
7878.906250	-80.676361
7879.882812	-80.680229
7880.859375	-80.676025
7881.835938	-80.682304
7882.812500	-80.676537
7883.789062	-80.679253
7884.765625	-80.680733
7885.742188	-80.677582
7886.718750	-80.676086
7887.695312	-80.679245
7888.671875	-80.679512
7889.648438	-80.680626
7890.625000	-80.678017
7891.601562	-80.680473
7892.578125	-80.681145
7893.554688	-80.677193
7894.531250	-80.681084
7895.507812	-80.683388
7896.484375	-80.683411
7897.460938	-80.683540
7898.437500	-80.682022
7899.414062	-80.682388
7900.390625	-80.683014
7901.367188	-80.686546
7902.343750	-80.683540
7903.320312	-80.684059
7904.296875	-80.683502
7905.273438	-80.682541
7906.250000	-80.683319
7907.226562	-80.682365
7908.203125	-80.683525
7909.179688	-80.683998
7910.156250	-80.684982
7911.132812	-80.683937
7912.109375	-80.683746
7913.085938	-80.683235
7914.062500	-80.685692
7915.039062	-80.684433
7916.015625	-80.684792
7916.992188	-80.684303
7917.968750	-80.685211
7918.945312	-80.684311
7919.921875	-80.685745
7920.898438	-80.685593
7921.875000	-80.686440
7922.851562	-80.686935
7923.828125	-80.685493
7924.804688	-80.685555
7925.781250	-80.686203
7926.757812	-80.686317
7927.734375	-80.686493
7928.710938	-80.686378
7929.687500	-80.685677
7930.664062	-80.686523
7931.640625	-80.685997
7932.617188	-80.686501
7933.593750	-80.686745
7934.570312	-80.686798
7935.546875	-80.686699
7936.523438	-80.687065
7937.500000	-80.687172
7938.476562	-80.687210
7939.453125	-80.687080
7940.429688	-80.687469
7941.406250	-80.687576
7942.382812	-80.687431
7943.359375	-80.687782
7944.335938	-80.687790
7945.312500	-80.687897
7946.289062	-80.687904
7947.265625	-80.688141
7948.242188	-80.687973
7949.218750	-80.688232
7950.195312	-80.688248
7951.171875	-80.688408
7952.148438	-80.688332
7953.125000	-80.688477
7954.101562	-80.688431
7955.078125	-80.688484
7956.054688	-80.688599
7957.031250	-80.688660
7958.007812	-80.688728
7958.984375	-80.688766
7959.960938	-80.688805
7960.937500	-80.688820
7961.914062	-80.688919
7962.890625	-80.688942
7963.867188	-80.689041
7964.843750	-80.689087
7965.820312	-80.689148
7966.796875	-80.689178
7967.773438	-80.689285
7968.750000	-80.689301
7969.726562	-80.689354
7970.703125	-80.689400
7971.679688	-80.689453
7972.656250	-80.689499
7973.632812	-80.689552
7974.609375	-80.689568
7975.585938	-80.689606
7976.562500	-80.689636
7977.539062	-80.689659
7978.515625	-80.689674
7979.492188	-80.689690
7980.468750	-80.689682
7981.445312	-80.689713
7982.421875	-80.689728
7983.398438	-80.689743
7984.375000	-80.689751
7985.351562	-80.689789
7986.328125	-80.689796
7987.304688	-80.689819
7988.281250	-80.689850
7989.257812	-80.689857
7990.234375	-80.689857
7991.210938	-80.689896
7992.187500	-80.689911
7993.164062	-80.689957
7994.140625	-80.689941
7995.117188	-80.689972
7996.093750	-80.689980
7997.070312	-80.689987
7998.046875	-80.689987
7999.023438	-80.689995
