Frequency (Hz)	Level (dB)
0.976562	-38.983501
1.953125	-41.234352
2.929688	-43.545967
3.906250	-39.388241
4.882812	-44.952984
5.859375	-47.738152
6.835938	-45.013786
7.812500	-39.532608
8.789062	-46.921211
9.765625	-47.667099
10.742188	-46.754818
11.718750	-43.018673
12.695312	-46.770084
13.671875	-49.474514
14.648438	-46.130852
15.625000	-45.940826
16.601562	-48.099350
17.578125	-50.289505
18.554688	-47.675163
19.531250	-47.377487
20.507812	-48.213337
21.484375	-49.422310
22.460938	-48.465157
23.437500	-47.228508
24.414062	-48.179237
25.390625	-50.034821
26.367188	-48.705280
27.343750	-48.372948
28.320312	-48.596668
29.296875	-49.051815
30.273438	-47.442383
31.250000	-48.189976
32.226562	-48.337288
33.203125	-48.898472
34.179688	-48.450329
35.156250	-47.853035
36.132812	-49.040710
37.109375	-49.582962
38.085938	-49.043381
39.062500	-48.196442
40.039062	-49.103382
41.015625	-49.587448
41.992188	-49.619286
42.968750	-49.324112
43.945312	-48.691956
44.921875	-48.885326
45.898438	-49.735043
46.875000	-49.377483
47.851562	-48.911800
48.828125	-49.036880
49.804688	-48.886017
50.781250	-49.487541
51.757812	-49.530262
52.734375	-49.498753
53.710938	-50.318604
54.687500	-49.739735
55.664062	-48.843842
56.640625	-49.206543
57.617188	-49.263748
58.593750	-48.820358
59.570312	-49.612934
60.546875	-49.818748
61.523438	-49.431896
62.500000	-50.224102
63.476562	-49.673164
64.453125	-50.689140
65.429688	-50.018677
66.406250	-49.917976
67.382812	-49.193764
68.359375	-49.739418
69.335938	-49.913498
70.312500	-50.131771
71.289062	-49.828640
72.265625	-49.592384
73.242188	-49.430950
74.218750	-48.989929
75.195312	-50.242828
76.171875	-49.742126
77.148438	-49.752411
78.125000	-50.085041
79.101562	-49.927982
80.078125	-50.402668
81.054688	-50.301880
82.031250	-49.533535
83.007812	-49.420116
83.984375	-49.391438
84.960938	-50.270195
85.937500	-50.101086
86.914062	-50.133686
87.890625	-50.307407
88.867188	-50.450863
89.843750	-50.242222
90.820312	-50.405399
91.796875	-50.278122
92.773438	-49.765377
93.750000	-49.311226
94.726562	-50.101925
95.703125	-49.895226
96.679688	-49.734776
97.656250	-49.646931
98.632812	-48.946022
99.609375	-49.959232
100.585938	-50.567982
101.562500	-49.631401
102.539062	-49.208420
103.515625	-49.754387
104.492188	-50.653797
105.468750	-49.819099
106.445312	-49.732800
107.421875	-49.926044
108.398438	-49.894222
109.375000	-49.231525
110.351562	-49.771423
111.328125	-50.763916
112.304688	-51.206032
113.281250	-50.536911
114.257812	-50.653656
115.234375	-50.276089
116.210938	-50.319187
117.187500	-50.121395
118.164062	-49.411880
119.140625	-49.553387
120.117188	-50.598061
121.093750	-50.291637
122.070312	-50.083172
123.046875	-50.148842
124.023438	-50.415295
125.000000	-49.829823
125.976562	-49.659340
126.953125	-51.211468
127.929688	-50.622440
128.906250	-50.057072
129.882812	-49.643127
130.859375	-49.894993
131.835938	-49.649071
132.812500	-49.519249
133.789062	-50.109638
134.765625	-50.330864
135.742188	-50.031040
136.718750	-49.749317
137.695312	-50.055679
138.671875	-50.642326
139.648438	-50.251102
140.625000	-50.179287
141.601562	-49.302818
142.578125	-49.458370
143.554688	-49.243935
144.531250	-49.340397
145.507812	-49.263569
146.484375	-50.217453
147.460938	-49.939228
148.437500	-49.299007
149.414062	-49.288933
150.390625	-49.617310
151.367188	-49.619980
152.343750	-49.015343
153.320312	-49.731178
154.296875	-48.941917
155.273438	-48.446140
156.250000	-49.548946
157.226562	-49.658306
158.203125	-49.103733
159.179688	-48.252438
160.156250	-50.152092
161.132812	-49.219341
162.109375	-49.206402
163.085938	-49.032795
164.062500	-49.280685
165.039062	-49.153698
166.015625	-49.372906
166.992188	-48.915840
167.968750	-49.328152
168.945312	-49.405239
169.921875	-49.270519
170.898438	-48.854107
171.875000	-48.918877
172.851562	-49.176323
173.828125	-49.194290
174.804688	-46.933357
175.781250	-48.187626
176.757812	-49.378742
177.734375	-48.237003
178.710938	-48.204483
179.687500	-48.864025
180.664062	-48.861549
181.640625	-48.405197
182.617188	-48.524200
183.593750	-49.007133
184.570312	-48.873825
185.546875	-48.770905
186.523438	-48.266895
187.500000	-48.495068
188.476562	-48.677982
189.453125	-49.051437
190.429688	-48.235718
191.406250	-48.815552
192.382812	-49.569168
193.359375	-49.013668
194.335938	-49.336285
195.312500	-48.810947
196.289062	-48.679256
197.265625	-49.017788
198.242188	-49.207996
199.218750	-49.130505
200.195312	-47.870346
201.171875	-49.360233
202.148438	-49.240829
203.125000	-49.088867
204.101562	-50.116047
205.078125	-49.118973
206.054688	-49.441223
207.031250	-49.490845
208.007812	-49.195770
208.984375	-49.184425
209.960938	-49.191353
210.937500	-49.654007
211.914062	-48.919136
212.890625	-49.643383
213.867188	-49.388412
214.843750	-49.291908
215.820312	-49.407768
216.796875	-49.157677
217.773438	-49.257534
218.750000	-49.328407
219.726562	-49.102684
220.703125	-49.007481
221.679688	-50.452103
222.656250	-49.037724
223.632812	-49.676807
224.609375	-48.858906
225.585938	-49.778748
226.562500	-50.540520
227.539062	-50.382248
228.515625	-49.609863
229.492188	-49.664497
230.468750	-49.003670
231.445312	-48.969555
232.421875	-49.810642
233.398438	-50.015518
234.375000	-49.526375
235.351562	-49.999432
236.328125	-50.128330
237.304688	-49.988800
238.281250	-49.739094
239.257812	-48.486065
240.234375	-49.224068
241.210938	-48.788780
242.187500	-49.266804
243.164062	-49.485771
244.140625	-48.929081
245.117188	-49.414860
246.093750	-49.319183
247.070312	-49.948925
248.046875	-49.520309
249.023438	-48.713001
250.000000	-49.697121
250.976562	-49.394077
251.953125	-49.296452
252.929688	-49.507603
253.906250	-48.811386
254.882812	-49.142078
255.859375	-49.569984
256.835938	-49.066700
257.812500	-49.255310
258.789062	-48.774166
259.765625	-49.888371
260.742188	-50.084843
261.718750	-49.471375
262.695312	-48.323185
263.671875	-48.996357
264.648438	-49.064476
265.625000	-49.007099
266.601562	-49.129910
267.578125	-49.199646
268.554688	-48.213333
269.531250	-49.248196
270.507812	-49.294735
271.484375	-47.560596
272.460938	-48.529789
273.437500	-48.549911
274.414062	-49.039696
275.390625	-48.207340
276.367188	-47.890282
277.343750	-49.022629
278.320312	-48.364990
279.296875	-49.011761
280.273438	-49.325935
281.250000	-48.607944
282.226562	-49.306213
283.203125	-48.738480
284.179688	-48.583771
285.156250	-49.134602
286.132812	-48.512684
287.109375	-47.830769
288.085938	-47.876984
289.062500	-48.302238
290.039062	-48.114601
291.015625	-48.122471
291.992188	-47.534157
292.968750	-48.355137
293.945312	-48.531849
294.921875	-48.536526
295.898438	-47.923843
296.875000	-48.599575
297.851562	-47.786339
298.828125	-47.716728
299.804688	-47.449898
300.781250	-47.793293
301.757812	-48.879322
302.734375	-48.389832
303.710938	-48.029556
304.687500	-47.600872
305.664062	-48.397469
306.640625	-47.760334
307.617188	-48.193001
308.593750	-48.036892
309.570312	-48.239609
310.546875	-48.530277
311.523438	-48.622364
312.500000	-47.337162
313.476562	-48.002937
314.453125	-47.581367
315.429688	-48.100273
316.406250	-48.325272
317.382812	-46.693932
318.359375	-48.165031
319.335938	-48.630474
320.312500	-47.246140
321.289062	-47.360359
322.265625	-46.701176
323.242188	-47.464832
324.218750	-47.650814
325.195312	-48.414669
326.171875	-48.010441
327.148438	-47.295494
328.125000	-46.881603
329.101562	-45.927917
330.078125	-47.553883
331.054688	-47.443207
332.031250	-48.125797
333.007812	-48.079090
333.984375	-48.323597
334.960938	-48.252235
335.937500	-47.289101
336.914062	-47.637211
337.890625	-46.931793
338.867188	-47.247887
339.843750	-47.188892
340.820312	-47.419476
341.796875	-47.202568
342.773438	-47.657341
343.750000	-47.812138
344.726562	-46.517792
345.703125	-47.091488
346.679688	-48.520382
347.656250	-47.578156
348.632812	-47.281509
349.609375	-47.574898
350.585938	-47.515240
351.562500	-47.404030
352.539062	-47.755276
353.515625	-46.881542
354.492188	-46.920277
355.468750	-46.935802
356.445312	-46.265095
357.421875	-46.542290
358.398438	-46.767311
359.375000	-47.019920
360.351562	-46.757164
361.328125	-47.145775
362.304688	-46.664074
363.281250	-48.251286
364.257812	-47.558342
365.234375	-47.973652
366.210938	-47.415047
367.187500	-47.940472
368.164062	-49.120949
369.140625	-47.437016
370.117188	-47.968533
371.093750	-48.751171
372.070312	-48.118740
373.046875	-48.058456
374.023438	-47.740009
375.000000	-47.973705
375.976562	-47.707382
376.953125	-48.380424
377.929688	-47.876514
378.906250	-47.636372
379.882812	-48.054203
380.859375	-47.503712
381.835938	-47.760662
382.812500	-48.325119
383.789062	-47.819016
384.765625	-47.464905
385.742188	-48.115246
386.718750	-48.301075
387.695312	-48.264839
388.671875	-48.204170
389.648438	-48.389515
390.625000	-48.592140
391.601562	-48.127491
392.578125	-47.492298
393.554688	-48.456970
394.531250	-48.991493
395.507812	-48.258659
396.484375	-48.105797
397.460938	-47.945847
398.437500	-48.402882
399.414062	-48.205177
400.390625	-48.808846
401.367188	-48.177212
402.343750	-48.958241
403.320312	-47.553429
404.296875	-48.972523
405.273438	-47.993492
406.250000	-47.410671
407.226562	-48.399933
408.203125	-48.768383
409.179688	-48.532833
410.156250	-48.135967
411.132812	-48.207993
412.109375	-48.015781
413.085938	-48.546192
414.062500	-48.123592
415.039062	-48.528778
416.015625	-48.241879
416.992188	-48.931156
417.968750	-48.471474
418.945312	-47.753254
419.921875	-48.731766
420.898438	-47.443008
421.875000	-47.595848
422.851562	-48.074547
423.828125	-48.049118
424.804688	-48.509750
425.781250	-48.558479
426.757812	-47.956264
427.734375	-47.987068
428.710938	-48.019966
429.687500	-48.279804
430.664062	-48.832417
431.640625	-47.831924
432.617188	-48.334389
433.593750	-47.531776
434.570312	-48.129097
435.546875	-48.306732
436.523438	-48.627312
437.500000	-48.250694
438.476562	-48.676880
439.453125	-48.924370
440.429688	-49.550709
441.406250	-49.108479
442.382812	-48.633926
443.359375	-47.898277
444.335938	-48.703186
445.312500	-47.320347
446.289062	-47.804363
447.265625	-47.942291
448.242188	-48.080967
449.218750	-47.660286
450.195312	-48.333290
451.171875	-48.292435
452.148438	-47.993591
453.125000	-49.113373
454.101562	-48.002861
455.078125	-48.890705
456.054688	-48.289116
457.031250	-48.335854
458.007812	-47.788170
458.984375	-47.870090
459.960938	-49.111229
460.937500	-48.060501
461.914062	-47.856167
462.890625	-47.187710
463.867188	-47.260677
464.843750	-47.939461
465.820312	-47.881458
466.796875	-47.502632
467.773438	-47.276447
468.750000	-48.196014
469.726562	-47.245491
470.703125	-47.878651
471.679688	-47.622314
472.656250	-47.204647
473.632812	-47.476868
474.609375	-47.906528
475.585938	-47.632378
476.562500	-47.771446
477.539062	-47.478767
478.515625	-46.055248
479.492188	-47.799625
480.468750	-47.773190
481.445312	-46.710762
482.421875	-46.586601
483.398438	-47.216347
484.375000	-46.709740
485.351562	-46.845684
486.328125	-47.249859
487.304688	-47.673866
488.281250	-46.741581
489.257812	-46.703987
490.234375	-46.620018
491.210938	-46.281780
492.187500	-46.638130
493.164062	-46.337395
494.140625	-45.056252
495.117188	-45.821686
496.093750	-46.220341
497.070312	-45.185352
498.046875	-46.227684
499.023438	-46.612679
500.000000	-46.991436
500.976562	-45.383270
501.953125	-45.938351
502.929688	-47.210461
503.906250	-45.526108
504.882812	-46.815254
505.859375	-45.109009
506.835938	-45.135693
507.812500	-44.878021
508.789062	-45.270714
509.765625	-45.375076
510.742188	-44.914707
511.718750	-45.036880
512.695312	-46.177830
513.671875	-45.054352
514.648438	-45.384220
515.625000	-45.391857
516.601562	-45.466496
517.578125	-45.575535
518.554688	-44.593266
519.531250	-45.262238
520.507812	-45.534237
521.484375	-44.642197
522.460938	-45.595146
523.437500	-44.548431
524.414062	-43.919914
525.390625	-44.163158
526.367188	-44.771072
527.343750	-44.484684
528.320312	-44.235165
529.296875	-43.091740
530.273438	-44.006664
531.250000	-44.010578
532.226562	-43.647480
533.203125	-44.250450
534.179688	-44.754089
535.156250	-44.653656
536.132812	-44.229088
537.109375	-43.713497
538.085938	-44.772587
539.062500	-43.796246
540.039062	-43.839577
541.015625	-44.998440
541.992188	-44.858994
542.968750	-43.191120
543.945312	-43.390717
544.921875	-44.387695
545.898438	-45.422207
546.875000	-46.171230
547.851562	-46.846840
548.828125	-45.565350
549.804688	-46.307560
550.781250	-46.062523
551.757812	-46.075100
552.734375	-45.581306
553.710938	-46.529278
554.687500	-45.832539
555.664062	-46.566032
556.640625	-45.604935
557.617188	-46.290565
558.593750	-45.539471
559.570312	-46.396637
560.546875	-45.954990
561.523438	-45.787395
562.500000	-47.919777
563.476562	-46.866718
564.453125	-46.501724
565.429688	-46.881977
566.406250	-46.377388
567.382812	-46.161861
568.359375	-47.181778
569.335938	-46.813301
570.312500	-46.051811
571.289062	-46.895088
572.265625	-46.427670
573.242188	-46.790451
574.218750	-47.619850
575.195312	-46.263237
576.171875	-46.722881
577.148438	-46.833462
578.125000	-46.738903
579.101562	-46.308712
580.078125	-47.027138
581.054688	-47.156509
582.031250	-46.382729
583.007812	-46.361031
583.984375	-46.718285
584.960938	-46.205540
585.937500	-46.632488
586.914062	-46.414066
587.890625	-46.655354
588.867188	-46.833206
589.843750	-46.705593
590.820312	-46.811291
591.796875	-46.519012
592.773438	-46.938293
593.750000	-47.404884
594.726562	-46.808479
595.703125	-46.014179
596.679688	-47.220905
597.656250	-46.961365
598.632812	-45.896515
599.609375	-46.945633
600.585938	-46.089619
601.562500	-46.727367
602.539062	-46.397137
603.515625	-46.580975
604.492188	-45.903534
605.468750	-46.539795
606.445312	-47.435074
607.421875	-46.739853
608.398438	-46.941494
609.375000	-46.758308
610.351562	-46.178123
611.328125	-46.051521
612.304688	-46.964725
613.281250	-47.732159
614.257812	-47.029636
615.234375	-46.919586
616.210938	-46.756035
617.187500	-46.140816
618.164062	-46.564930
619.140625	-45.996338
620.117188	-46.717339
621.093750	-45.721642
622.070312	-46.452885
623.046875	-46.194576
624.023438	-46.425236
625.000000	-46.032509
625.976562	-45.874752
626.953125	-45.221111
627.929688	-46.119110
628.906250	-45.732368
629.882812	-45.420128
630.859375	-45.917805
631.835938	-46.042545
632.812500	-45.167309
633.789062	-45.918941
634.765625	-45.642563
635.742188	-44.930241
636.718750	-45.648552
637.695312	-45.196720
638.671875	-45.843441
639.648438	-44.540512
640.625000	-44.602798
641.601562	-44.671886
642.578125	-44.665749
643.554688	-45.125862
644.531250	-44.189651
645.507812	-43.617722
646.484375	-44.321480
647.460938	-44.922142
648.437500	-43.266869
649.414062	-44.296707
650.390625	-44.238461
651.367188	-43.003788
652.343750	-43.135674
653.320312	-44.310303
654.296875	-43.106895
655.273438	-42.349960
656.250000	-43.645832
657.226562	-43.029686
658.203125	-43.613712
659.179688	-42.640106
660.156250	-42.246246
661.132812	-42.180218
662.109375	-42.748516
663.085938	-42.171474
664.062500	-41.803005
665.039062	-42.520012
666.015625	-42.051487
666.992188	-41.596451
667.968750	-41.931900
668.945312	-42.548031
669.921875	-42.296432
670.898438	-41.958397
671.875000	-41.660389
672.851562	-41.711525
673.828125	-41.545967
674.804688	-42.508556
675.781250	-40.667313
676.757812	-41.622875
677.734375	-41.587532
678.710938	-41.547813
679.687500	-40.886665
680.664062	-40.816906
681.640625	-41.275181
682.617188	-40.552513
683.593750	-39.918625
684.570312	-40.182625
685.546875	-40.355305
686.523438	-41.147923
687.500000	-40.635319
688.476562	-40.786102
689.453125	-40.486671
690.429688	-39.988007
691.406250	-40.204277
692.382812	-39.662460
693.359375	-40.409039
694.335938	-40.181019
695.312500	-39.954388
696.289062	-39.218151
697.265625	-39.987133
698.242188	-40.394314
699.218750	-40.317532
700.195312	-39.183361
701.171875	-39.256039
702.148438	-39.107864
703.125000	-39.302040
704.101562	-39.431236
705.078125	-39.360718
706.054688	-39.471546
707.031250	-39.756680
708.007812	-38.757641
708.984375	-38.393307
709.960938	-38.381882
710.937500	-39.612427
711.914062	-38.623783
712.890625	-38.566147
713.867188	-37.861820
714.843750	-38.624531
715.820312	-37.366524
716.796875	-36.832581
717.773438	-37.032631
718.750000	-37.789402
719.726562	-37.447842
720.703125	-37.399395
721.679688	-37.753426
722.656250	-39.423763
723.632812	-39.308537
724.609375	-38.791588
725.585938	-39.305664
726.562500	-39.743725
727.539062	-39.338448
728.515625	-39.001537
729.492188	-39.384888
730.468750	-40.093025
731.445312	-39.828461
732.421875	-39.781525
733.398438	-39.857433
734.375000	-39.525536
735.351562	-40.187977
736.328125	-41.278900
737.304688	-41.245659
738.281250	-40.959755
739.257812	-40.620285
740.234375	-41.004547
741.210938	-40.775311
742.187500	-41.266937
743.164062	-41.263573
744.140625	-40.872074
745.117188	-41.385517
746.093750	-40.971535
747.070312	-40.460129
748.046875	-40.847828
749.023438	-41.219028
750.000000	-40.219990
750.976562	-41.804329
751.953125	-41.898609
752.929688	-41.741974
753.906250	-41.617771
754.882812	-41.446602
755.859375	-42.271744
756.835938	-43.192917
757.812500	-42.504333
758.789062	-41.523899
759.765625	-42.377327
760.742188	-41.897259
761.718750	-41.770416
762.695312	-41.990894
763.671875	-42.784775
764.648438	-43.010872
765.625000	-41.970490
766.601562	-42.311943
767.578125	-43.502090
768.554688	-42.830948
769.531250	-42.446373
770.507812	-42.647816
771.484375	-43.140560
772.460938	-43.646400
773.437500	-42.072754
774.414062	-42.651718
775.390625	-44.177097
776.367188	-43.526714
777.343750	-43.444107
778.320312	-42.915585
779.296875	-43.647774
780.273438	-42.897560
781.250000	-44.283276
782.226562	-42.392651
783.203125	-43.750858
784.179688	-43.683189
785.156250	-43.112026
786.132812	-43.838657
787.109375	-44.498474
788.085938	-43.513588
789.062500	-43.877251
790.039062	-43.954861
791.015625	-44.283192
791.992188	-45.441223
792.968750	-44.451515
793.945312	-44.624054
794.921875	-44.058693
795.898438	-44.320202
796.875000	-43.767868
797.851562	-44.208805
798.828125	-44.416233
799.804688	-44.097672
800.781250	-44.401070
801.757812	-44.861763
802.734375	-45.504463
803.710938	-43.578388
804.687500	-43.535244
805.664062	-44.762962
806.640625	-44.050823
807.617188	-43.761623
808.593750	-43.707348
809.570312	-43.908588
810.546875	-44.004425
811.523438	-43.513821
812.500000	-44.058697
813.476562	-43.447788
814.453125	-43.995037
815.429688	-43.589878
816.406250	-43.323940
817.382812	-44.355900
818.359375	-43.885506
819.335938	-43.216621
820.312500	-42.986591
821.289062	-44.027390
822.265625	-43.583645
823.242188	-44.015820
824.218750	-44.040874
825.195312	-43.857182
826.171875	-42.441906
827.148438	-43.832264
828.125000	-42.779015
829.101562	-42.524235
830.078125	-42.963737
831.054688	-43.466732
832.031250	-42.604275
833.007812	-42.213955
833.984375	-42.135128
834.960938	-42.048985
835.937500	-43.263260
836.914062	-42.736813
837.890625	-43.180042
838.867188	-43.512333
839.843750	-42.923290
840.820312	-42.828255
841.796875	-41.622360
842.773438	-41.763706
843.750000	-41.956112
844.726562	-41.618008
845.703125	-42.151459
846.679688	-42.388725
847.656250	-41.951458
848.632812	-41.447048
849.609375	-41.921215
850.585938	-41.246136
851.562500	-41.161316
852.539062	-40.285172
853.515625	-39.730968
854.492188	-39.431622
855.468750	-39.114826
856.445312	-39.699043
857.421875	-37.395691
858.398438	-38.685337
859.375000	-39.148342
860.351562	-39.890327
861.328125	-37.345192
862.304688	-37.938911
863.281250	-39.149754
864.257812	-37.385605
865.234375	-35.447250
866.210938	-38.138634
867.187500	-39.000458
868.164062	-37.605450
869.140625	-34.905952
870.117188	-37.064846
871.093750	-35.599121
872.070312	-35.849590
873.046875	-36.282585
874.023438	-34.756760
875.000000	-35.006958
875.976562	-33.715195
876.953125	-34.593254
877.929688	-35.186646
878.906250	-33.239922
879.882812	-34.796326
880.859375	-34.599945
881.835938	-34.607845
882.812500	-34.120003
883.789062	-32.417618
884.765625	-34.316936
885.742188	-33.776825
886.718750	-32.128078
887.695312	-32.711578
888.671875	-33.317272
889.648438	-32.565746
890.625000	-32.078617
891.601562	-31.761015
892.578125	-32.350456
893.554688	-32.049072
894.531250	-32.312550
895.507812	-31.944164
896.484375	-31.872351
897.460938	-31.122368
898.437500	-31.264507
899.414062	-32.083897
900.390625	-32.172173
901.367188	-32.043865
902.343750	-31.555763
903.320312	-31.514389
904.296875	-31.879925
905.273438	-33.119194
906.250000	-31.482344
907.226562	-32.565628
908.203125	-32.751137
909.179688	-33.466324
910.156250	-32.267101
911.132812	-33.168930
912.109375	-33.628765
913.085938	-33.761715
914.062500	-33.279839
915.039062	-34.078297
916.015625	-34.905109
916.992188	-34.323727
917.968750	-34.100899
918.945312	-35.050358
919.921875	-35.807529
920.898438	-35.786907
921.875000	-35.859432
922.851562	-36.989002
923.828125	-37.588097
924.804688	-37.054424
925.781250	-37.971836
926.757812	-37.282482
927.734375	-38.278599
928.710938	-37.495495
929.687500	-38.055214
930.664062	-37.648273
931.640625	-37.904934
932.617188	-38.162235
933.593750	-38.471977
934.570312	-38.836254
935.546875	-38.943626
936.523438	-38.532749
937.500000	-38.627735
938.476562	-38.603867
939.453125	-39.048084
940.429688	-39.279373
941.406250	-39.459702
942.382812	-39.164593
943.359375	-39.146908
944.335938	-39.202003
945.312500	-39.405891
946.289062	-39.648804
947.265625	-39.868793
948.242188	-39.738564
949.218750	-39.483704
950.195312	-39.543137
951.171875	-40.022121
952.148438	-39.987591
953.125000	-40.016907
954.101562	-39.420002
955.078125	-40.189651
956.054688	-39.601368
957.031250	-39.615204
958.007812	-39.711594
958.984375	-39.458515
959.960938	-40.215336
960.937500	-40.379463
961.914062	-39.249340
962.890625	-39.872051
963.867188	-39.905739
964.843750	-40.626705
965.820312	-39.217922
966.796875	-39.879383
967.773438	-39.544178
968.750000	-39.488640
969.726562	-39.318775
970.703125	-38.391068
971.679688	-39.788013
972.656250	-38.429543
973.632812	-37.730988
974.609375	-39.267658
975.585938	-38.565559
976.562500	-39.141216
977.539062	-38.234257
978.515625	-37.494228
979.492188	-39.430862
980.468750	-38.804337
981.445312	-36.045998
982.421875	-36.944420
983.398438	-38.138920
984.375000	-36.536224
985.351562	-36.249451
986.328125	-36.668274
987.304688	-36.004955
988.281250	-35.250076
989.257812	-37.612488
990.234375	-36.144299
991.210938	-35.109756
992.187500	-34.739899
993.164062	-35.535561
994.140625	-35.504826
995.117188	-33.878670
996.093750	-34.168941
997.070312	-36.477055
998.046875	-34.663540
999.023438	-35.410255
1000.000000	-33.565292
1000.976562	-32.699528
1001.953125	-33.002689
1002.929688	-32.805283
1003.906250	-32.083336
1004.882812	-34.846909
1005.859375	-31.984056
1006.835938	-32.487137
1007.812500	-33.420738
1008.789062	-32.263390
1009.765625	-32.035225
1010.742188	-30.604780
1011.718750	-30.095406
1012.695312	-30.194000
1013.671875	-31.837360
1014.648438	-30.535114
1015.625000	-29.150537
1016.601562	-28.902517
1017.578125	-28.615694
1018.554688	-27.477076
1019.531250	-28.859709
1020.507812	-26.402487
1021.484375	-26.268393
1022.460938	-25.562943
1023.437500	-25.703995
1024.414062	-25.951220
1025.390625	-26.076351
1026.367188	-25.337002
1027.343750	-26.232531
1028.320312	-23.495056
1029.296875	-24.733213
1030.273438	-25.213930
1031.250000	-26.136658
1032.226562	-23.993847
1033.203125	-23.810356
1034.179688	-25.934996
1035.156250	-24.026955
1036.132812	-24.619022
1037.109375	-23.333023
1038.085938	-24.079933
1039.062500	-25.685068
1040.039062	-24.404604
1041.015625	-22.408285
1041.992188	-23.905209
1042.968750	-24.852648
1043.945312	-23.500460
1044.921875	-22.847631
1045.898438	-22.042889
1046.875000	-23.556561
1047.851562	-23.830154
1048.828125	-22.691771
1049.804688	-21.605738
1050.781250	-21.845284
1051.757812	-20.921160
1052.734375	-20.912315
1053.710938	-20.466297
1054.687500	-20.023891
1055.664062	-20.456459
1056.640625	-20.919287
1057.617188	-19.975004
1058.593750	-21.371008
1059.570312	-20.413570
1060.546875	-19.536299
1061.523438	-20.397741
1062.500000	-20.681593
1063.476562	-20.457407
1064.453125	-19.973162
1065.429688	-20.367571
1066.406250	-20.107939
1067.382812	-19.552332
1068.359375	-19.153986
1069.335938	-19.317015
1070.312500	-19.550959
1071.289062	-20.495604
1072.265625	-19.644728
1073.242188	-18.962830
1074.218750	-19.159752
1075.195312	-19.748840
1076.171875	-20.544138
1077.148438	-18.790886
1078.125000	-19.679585
1079.101562	-20.148653
1080.078125	-19.147989
1081.054688	-19.656931
1082.031250	-19.911257
1083.007812	-20.294424
1083.984375	-19.524340
1084.960938	-19.541752
1085.937500	-19.745829
1086.914062	-20.519176
1087.890625	-20.305740
1088.867188	-19.835329
1089.843750	-20.194437
1090.820312	-19.178930
1091.796875	-19.760870
1092.773438	-20.069355
1093.750000	-20.651575
1094.726562	-20.064678
1095.703125	-19.354250
1096.679688	-20.342304
1097.656250	-21.966852
1098.632812	-21.171688
1099.609375	-21.024849
1100.585938	-20.895649
1101.562500	-20.149220
1102.539062	-20.407932
1103.515625	-21.234505
1104.492188	-22.818735
1105.468750	-21.255651
1106.445312	-22.248539
1107.421875	-22.368387
1108.398438	-21.228062
1109.375000	-21.355471
1110.351562	-22.328144
1111.328125	-22.886993
1112.304688	-22.652512
1113.281250	-23.655466
1114.257812	-22.414028
1115.234375	-22.032257
1116.210938	-22.445469
1117.187500	-23.824623
1118.164062	-24.827099
1119.140625	-23.284155
1120.117188	-22.959373
1121.093750	-22.711296
1122.070312	-23.383657
1123.046875	-24.170626
1124.023438	-23.274178
1125.000000	-24.859375
1125.976562	-23.361422
1126.953125	-24.152355
1127.929688	-22.644518
1128.906250	-23.333969
1129.882812	-23.615242
1130.859375	-23.656569
1131.835938	-24.301607
1132.812500	-25.915413
1133.789062	-23.879858
1134.765625	-24.060799
1135.742188	-23.791651
1136.718750	-23.559801
1137.695312	-24.568615
1138.671875	-24.672909
1139.648438	-24.153620
1140.625000	-24.286154
1141.601562	-25.631130
1142.578125	-26.615747
1143.554688	-23.705132
1144.531250	-24.133257
1145.507812	-24.450621
1146.484375	-26.692970
1147.460938	-28.055763
1148.437500	-26.621220
1149.414062	-27.363707
1150.390625	-26.703676
1151.367188	-25.745562
1152.343750	-27.341133
1153.320312	-29.157143
1154.296875	-28.824575
1155.273438	-29.730280
1156.250000	-28.757681
1157.226562	-26.726707
1158.203125	-29.559135
1159.179688	-29.727486
1160.156250	-31.252527
1161.132812	-31.418558
1162.109375	-31.743967
1163.085938	-31.234438
1164.062500	-31.229780
1165.039062	-31.317972
1166.015625	-30.397747
1166.992188	-33.238705
1167.968750	-34.459648
1168.945312	-32.208839
1169.921875	-32.816319
1170.898438	-32.145485
1171.875000	-31.674995
1172.851562	-33.341537
1173.828125	-34.934235
1174.804688	-33.734463
1175.781250	-31.986692
1176.757812	-33.574619
1177.734375	-33.388863
1178.710938	-33.957458
1179.687500	-33.747204
1180.664062	-35.636795
1181.640625	-34.036011
1182.617188	-33.979645
1183.593750	-31.009638
1184.570312	-31.764845
1185.546875	-34.476028
1186.523438	-33.120087
1187.500000	-33.379589
1188.476562	-35.699657
1189.453125	-33.840607
1190.429688	-33.433540
1191.406250	-32.038242
1192.382812	-33.206760
1193.359375	-35.050743
1194.335938	-36.736076
1195.312500	-34.853149
1196.289062	-34.814899
1197.265625	-36.012074
1198.242188	-32.675522
1199.218750	-32.156338
1200.195312	-35.288624
1201.171875	-33.296585
1202.148438	-34.474651
1203.125000	-36.418716
1204.101562	-34.716675
1205.078125	-33.227997
1206.054688	-35.093868
1207.031250	-35.267048
1208.007812	-34.475796
1208.984375	-33.430920
1209.960938	-34.288246
1210.937500	-32.596077
1211.914062	-32.791016
1212.890625	-32.894817
1213.867188	-31.244448
1214.843750	-33.462437
1215.820312	-34.427082
1216.796875	-34.240860
1217.773438	-32.312088
1218.750000	-31.733034
1219.726562	-32.638260
1220.703125	-32.288582
1221.679688	-32.865688
1222.656250	-31.545612
1223.632812	-31.344229
1224.609375	-30.063950
1225.585938	-30.991920
1226.562500	-29.513136
1227.539062	-29.222290
1228.515625	-29.883633
1229.492188	-30.872551
1230.468750	-31.043917
1231.445312	-30.639601
1232.421875	-29.592178
1233.398438	-30.128757
1234.375000	-30.943937
1235.351562	-30.099169
1236.328125	-30.245188
1237.304688	-25.979740
1238.281250	-27.003366
1239.257812	-26.859138
1240.234375	-26.984653
1241.210938	-27.022366
1242.187500	-27.941343
1243.164062	-26.997629
1244.140625	-26.253271
1245.117188	-26.411112
1246.093750	-26.879499
1247.070312	-27.089880
1248.046875	-25.358154
1249.023438	-27.213127
1250.000000	-27.987089
1250.976562	-26.316549
1251.953125	-24.439943
1252.929688	-25.889261
1253.906250	-25.201563
1254.882812	-25.465572
1255.859375	-26.264196
1256.835938	-24.763487
1257.812500	-25.522432
1258.789062	-25.637060
1259.765625	-25.840677
1260.742188	-26.350140
1261.718750	-25.304707
1262.695312	-24.628897
1263.671875	-26.093718
1264.648438	-25.487085
1265.625000	-25.619259
1266.601562	-25.244051
1267.578125	-25.818840
1268.554688	-26.701075
1269.531250	-26.487213
1270.507812	-25.066250
1271.484375	-25.503172
1272.460938	-26.385002
1273.437500	-26.482731
1274.414062	-26.902363
1275.390625	-26.254423
1276.367188	-27.264135
1277.343750	-26.438931
1278.320312	-25.416233
1279.296875	-29.017063
1280.273438	-28.130033
1281.250000	-28.103769
1282.226562	-27.867102
1283.203125	-27.647949
1284.179688	-28.124239
1285.156250	-28.050978
1286.132812	-28.789671
1287.109375	-31.118887
1288.085938	-28.280937
1289.062500	-29.492714
1290.039062	-29.610191
1291.015625	-31.334578
1291.992188	-29.251169
1292.968750	-28.836485
1293.945312	-30.911539
1294.921875	-32.787235
1295.898438	-30.076769
1296.875000	-30.813284
1297.851562	-30.465485
1298.828125	-32.251648
1299.804688	-30.575607
1300.781250	-30.355980
1301.757812	-31.036333
1302.734375	-32.942619
1303.710938	-31.069992
1304.687500	-31.745607
1305.664062	-33.002235
1306.640625	-32.212353
1307.617188	-32.308460
1308.593750	-31.794958
1309.570312	-32.141727
1310.546875	-32.146416
1311.523438	-33.989525
1312.500000	-33.840614
1313.476562	-33.953934
1314.453125	-33.171875
1315.429688	-32.288944
1316.406250	-33.767944
1317.382812	-34.315601
1318.359375	-34.838276
1319.335938	-35.447983
1320.312500	-33.824081
1321.289062	-34.553802
1322.265625	-33.721256
1323.242188	-35.830078
1324.218750	-35.182110
1325.195312	-34.604893
1326.171875	-34.086395
1327.148438	-35.037571
1328.125000	-34.496368
1329.101562	-34.970299
1330.078125	-34.006691
1331.054688	-33.654785
1332.031250	-35.424175
1333.007812	-34.995708
1333.984375	-36.019348
1334.960938	-35.052135
1335.937500	-34.715477
1336.914062	-34.315041
1337.890625	-34.306690
1338.867188	-34.920517
1339.843750	-34.423523
1340.820312	-34.315716
1341.796875	-32.311119
1342.773438	-35.989098
1343.750000	-35.974075
1344.726562	-33.747978
1345.703125	-34.161316
1346.679688	-36.690887
1347.656250	-34.793392
1348.632812	-32.904457
1349.609375	-35.048061
1350.585938	-35.219044
1351.562500	-33.296307
1352.539062	-33.524406
1353.515625	-33.716728
1354.492188	-35.520695
1355.468750	-32.689846
1356.445312	-34.092815
1357.421875	-34.937801
1358.398438	-35.247906
1359.375000	-33.132999
1360.351562	-33.462482
1361.328125	-34.322819
1362.304688	-33.791702
1363.281250	-32.751766
1364.257812	-32.925968
1365.234375	-33.667583
1366.210938	-31.433624
1367.187500	-33.994095
1368.164062	-33.736511
1369.140625	-32.597340
1370.117188	-32.829781
1371.093750	-33.166973
1372.070312	-31.804480
1373.046875	-31.836147
1374.023438	-32.232441
1375.000000	-32.613678
1375.976562	-33.010689
1376.953125	-31.414545
1377.929688	-31.674173
1378.906250	-31.888630
1379.882812	-31.164495
1380.859375	-31.564259
1381.835938	-32.201370
1382.812500	-31.820274
1383.789062	-30.082479
1384.765625	-31.728012
1385.742188	-31.082508
1386.718750	-31.242792
1387.695312	-30.201307
1388.671875	-28.226479
1389.648438	-29.480810
1390.625000	-29.584040
1391.601562	-28.768322
1392.578125	-30.706472
1393.554688	-28.809681
1394.531250	-28.737419
1395.507812	-28.289753
1396.484375	-25.146572
1397.460938	-27.834652
1398.437500	-27.048218
1399.414062	-27.428833
1400.390625	-27.873896
1401.367188	-26.966358
1402.343750	-26.310507
1403.320312	-25.144663
1404.296875	-24.910297
1405.273438	-25.154375
1406.250000	-26.961958
1407.226562	-24.800133
1408.203125	-26.674326
1409.179688	-26.203114
1410.156250	-24.829220
1411.132812	-25.629124
1412.109375	-25.730055
1413.085938	-24.935322
1414.062500	-25.465628
1415.039062	-25.782881
1416.015625	-26.231789
1416.992188	-25.937735
1417.968750	-26.164206
1418.945312	-25.812407
1419.921875	-26.143702
1420.898438	-24.477764
1421.875000	-25.197950
1422.851562	-27.426781
1423.828125	-27.014072
1424.804688	-26.160685
1425.781250	-25.208237
1426.757812	-25.763643
1427.734375	-26.177816
1428.710938	-25.455664
1429.687500	-25.917723
1430.664062	-26.557066
1431.640625	-25.907072
1432.617188	-25.656683
1433.593750	-25.936838
1434.570312	-26.435797
1435.546875	-26.025190
1436.523438	-25.053802
1437.500000	-26.256073
1438.476562	-27.472437
1439.453125	-26.087845
1440.429688	-25.870211
1441.406250	-25.734049
1442.382812	-26.883688
1443.359375	-25.460218
1444.335938	-25.222340
1445.312500	-25.564310
1446.289062	-26.229313
1447.265625	-26.765842
1448.242188	-25.400496
1449.218750	-25.492706
1450.195312	-26.884851
1451.171875	-26.470417
1452.148438	-26.037327
1453.125000	-26.787468
1454.101562	-26.213791
1455.078125	-26.169334
1456.054688	-26.337006
1457.031250	-26.113543
1458.007812	-27.006559
1458.984375	-27.515265
1459.960938	-26.761362
1460.937500	-26.207706
1461.914062	-26.132072
1462.890625	-26.510786
1463.867188	-26.472511
1464.843750	-26.256828
1465.820312	-26.889126
1466.796875	-27.481009
1467.773438	-26.834152
1468.750000	-26.089333
1469.726562	-25.612726
1470.703125	-26.769688
1471.679688	-26.262878
1472.656250	-26.178091
1473.632812	-26.214756
1474.609375	-26.584269
1475.585938	-26.660345
1476.562500	-26.047121
1477.539062	-26.963911
1478.515625	-25.511351
1479.492188	-25.906336
1480.468750	-27.632401
1481.445312	-25.323223
1482.421875	-25.504303
1483.398438	-26.024134
1484.375000	-25.535898
1485.351562	-25.516794
1486.328125	-24.919479
1487.304688	-25.655708
1488.281250	-25.866655
1489.257812	-26.064749
1490.234375	-25.149380
1491.210938	-24.283293
1492.187500	-24.345625
1493.164062	-25.344545
1494.140625	-26.181316
1495.117188	-25.655222
1496.093750	-25.139093
1497.070312	-25.863682
1498.046875	-24.449757
1499.023438	-25.553669
1500.000000	-23.657036
1500.976562	-25.100212
1501.953125	-27.019745
1502.929688	-26.533020
1503.906250	-26.842966
1504.882812	-27.340565
1505.859375	-27.913671
1506.835938	-27.021463
1507.812500	-27.107826
1508.789062	-29.576969
1509.765625	-27.568392
1510.742188	-29.192329
1511.718750	-29.130835
1512.695312	-30.429842
1513.671875	-28.740013
1514.648438	-30.466516
1515.625000	-29.392500
1516.601562	-29.862198
1517.578125	-28.767677
1518.554688	-31.811768
1519.531250	-31.246891
1520.507812	-30.486654
1521.484375	-31.281033
1522.460938	-30.646847
1523.437500	-29.946117
1524.414062	-31.421659
1525.390625	-30.595072
1526.367188	-34.248222
1527.343750	-32.439472
1528.320312	-31.280346
1529.296875	-33.659664
1530.273438	-33.355057
1531.250000	-32.077248
1532.226562	-31.973989
1533.203125	-32.268993
1534.179688	-36.120483
1535.156250	-35.266327
1536.132812	-32.963623
1537.109375	-37.204975
1538.085938	-35.834343
1539.062500	-33.843948
1540.039062	-34.664677
1541.015625	-34.556438
1541.992188	-36.788876
1542.968750	-37.692020
1543.945312	-35.030117
1544.921875	-36.536957
1545.898438	-35.333141
1546.875000	-36.444107
1547.851562	-39.059162
1548.828125	-37.812031
1549.804688	-35.997375
1550.781250	-39.525299
1551.757812	-39.766602
1552.734375	-39.530296
1553.710938	-34.574440
1554.687500	-37.067539
1555.664062	-38.070915
1556.640625	-40.668633
1557.617188	-39.505234
1558.593750	-40.543804
1559.570312	-42.262035
1560.546875	-39.473988
1561.523438	-37.240639
1562.500000	-35.342922
1563.476562	-38.877388
1564.453125	-41.599171
1565.429688	-41.481831
1566.406250	-40.169872
1567.382812	-40.149422
1568.359375	-40.431660
1569.335938	-38.962429
1570.312500	-36.925026
1571.289062	-38.452473
1572.265625	-39.707809
1573.242188	-41.554787
1574.218750	-40.132835
1575.195312	-40.374340
1576.171875	-39.033230
1577.148438	-40.044098
1578.125000	-39.380619
1579.101562	-38.731613
1580.078125	-41.451435
1581.054688	-42.095715
1582.031250	-40.628666
1583.007812	-41.651188
1583.984375	-40.507935
1584.960938	-40.567364
1585.937500	-41.152641
1586.914062	-40.541721
1587.890625	-39.284687
1588.867188	-41.507290
1589.843750	-41.745377
1590.820312	-42.174198
1591.796875	-40.233063
1592.773438	-41.087097
1593.750000	-40.434265
1594.726562	-41.298027
1595.703125	-41.102692
1596.679688	-40.504295
1597.656250	-40.813084
1598.632812	-41.777828
1599.609375	-40.835438
1600.585938	-40.825954
1601.562500	-40.782295
1602.539062	-41.412201
1603.515625	-40.725895
1604.492188	-41.090107
1605.468750	-41.015549
1606.445312	-41.371620
1607.421875	-41.047176
1608.398438	-41.130478
1609.375000	-41.173714
1610.351562	-41.107452
1611.328125	-40.801605
1612.304688	-40.749046
1613.281250	-40.126102
1614.257812	-40.945824
1615.234375	-40.987465
1616.210938	-41.352852
1617.187500	-41.285378
1618.164062	-41.461102
1619.140625	-41.471470
1620.117188	-40.765461
1621.093750	-41.172901
1622.070312	-41.164810
1623.046875	-41.246441
1624.023438	-40.558315
1625.000000	-41.384571
1625.976562	-41.361549
1626.953125	-40.765808
1627.929688	-40.724579
1628.906250	-41.138802
1629.882812	-41.852627
1630.859375	-41.441124
1631.835938	-41.144897
1632.812500	-39.367729
1633.789062	-40.715511
1634.765625	-41.734550
1635.742188	-41.077095
1636.718750	-40.492302
1637.695312	-41.581432
1638.671875	-40.559269
1639.648438	-41.320713
1640.625000	-40.533192
1641.601562	-39.295868
1642.578125	-40.676842
1643.554688	-41.559761
1644.531250	-40.042519
1645.507812	-40.042324
1646.484375	-41.035103
1647.460938	-40.342674
1648.437500	-41.361767
1649.414062	-40.867756
1650.390625	-40.412949
1651.367188	-41.668869
1652.343750	-40.845478
1653.320312	-42.286797
1654.296875	-41.004162
1655.273438	-41.279430
1656.250000	-42.215229
1657.226562	-41.508488
1658.203125	-40.597122
1659.179688	-42.113644
1660.156250	-42.179115
1661.132812	-42.225109
1662.109375	-43.215881
1663.085938	-42.804913
1664.062500	-43.516644
1665.039062	-42.097252
1666.015625	-42.273407
1666.992188	-42.145363
1667.968750	-42.841110
1668.945312	-42.959618
1669.921875	-43.144714
1670.898438	-44.123306
1671.875000	-42.835636
1672.851562	-42.712925
1673.828125	-42.499420
1674.804688	-44.141144
1675.781250	-43.463531
1676.757812	-43.470348
1677.734375	-44.765274
1678.710938	-43.584076
1679.687500	-43.240669
1680.664062	-44.318569
1681.640625	-44.221897
1682.617188	-44.609299
1683.593750	-44.407444
1684.570312	-43.007877
1685.546875	-43.984283
1686.523438	-44.247883
1687.500000	-44.016781
1688.476562	-42.856049
1689.453125	-43.645180
1690.429688	-44.770996
1691.406250	-45.045757
1692.382812	-44.437862
1693.359375	-43.703884
1694.335938	-44.781628
1695.312500	-43.861473
1696.289062	-44.102566
1697.265625	-44.224743
1698.242188	-43.405659
1699.218750	-43.692291
1700.195312	-43.642559
1701.171875	-43.136108
1702.148438	-43.217411
1703.125000	-43.652245
1704.101562	-44.577164
1705.078125	-43.994144
1706.054688	-43.771187
1707.031250	-44.473465
1708.007812	-43.876995
1708.984375	-43.546303
1709.960938	-43.972462
1710.937500	-43.647995
1711.914062	-43.885902
1712.890625	-43.680588
1713.867188	-44.090939
1714.843750	-43.530289
1715.820312	-43.462440
1716.796875	-44.224121
1717.773438	-44.199284
1718.750000	-43.087933
1719.726562	-43.347229
1720.703125	-43.751163
1721.679688	-43.908089
1722.656250	-43.794548
1723.632812	-42.967594
1724.609375	-43.478611
1725.585938	-42.972107
1726.562500	-42.482826
1727.539062	-43.372318
1728.515625	-43.692635
1729.492188	-43.663006
1730.468750	-43.161415
1731.445312	-42.372177
1732.421875	-43.261692
1733.398438	-43.380241
1734.375000	-42.980850
1735.351562	-43.513226
1736.328125	-43.312439
1737.304688	-42.823841
1738.281250	-42.797424
1739.257812	-43.329205
1740.234375	-43.485237
1741.210938	-42.999714
1742.187500	-43.371914
1743.164062	-43.238426
1744.140625	-42.773563
1745.117188	-41.089237
1746.093750	-44.252274
1747.070312	-43.556091
1748.046875	-43.923382
1749.023438	-43.320183
1750.000000	-44.317265
1750.976562	-43.800106
1751.953125	-43.449009
1752.929688	-43.583908
1753.906250	-43.818600
1754.882812	-43.434101
1755.859375	-43.432320
1756.835938	-44.628910
1757.812500	-43.937248
1758.789062	-42.668400
1759.765625	-42.906265
1760.742188	-44.116112
1761.718750	-43.481346
1762.695312	-44.277229
1763.671875	-42.888367
1764.648438	-43.716579
1765.625000	-43.312283
1766.601562	-43.007542
1767.578125	-42.770851
1768.554688	-43.182510
1769.531250	-43.070671
1770.507812	-42.759529
1771.484375	-43.830296
1772.460938	-43.953194
1773.437500	-43.713554
1774.414062	-43.680164
1775.390625	-43.922665
1776.367188	-42.528275
1777.343750	-43.481297
1778.320312	-43.033108
1779.296875	-42.790264
1780.273438	-43.485840
1781.250000	-43.712276
1782.226562	-42.832119
1783.203125	-43.873108
1784.179688	-42.958313
1785.156250	-43.732212
1786.132812	-43.077938
1787.109375	-43.232723
1788.085938	-43.097244
1789.062500	-43.230820
1790.039062	-43.557549
1791.015625	-43.323143
1791.992188	-42.701851
1792.968750	-43.553593
1793.945312	-43.186192
1794.921875	-44.432079
1795.898438	-43.362175
1796.875000	-42.671074
1797.851562	-43.018898
1798.828125	-42.727455
1799.804688	-43.527111
1800.781250	-43.184387
1801.757812	-42.755287
1802.734375	-43.146278
1803.710938	-43.342255
1804.687500	-43.494949
1805.664062	-42.918224
1806.640625	-43.302227
1807.617188	-44.085007
1808.593750	-43.684254
1809.570312	-42.131638
1810.546875	-43.217667
1811.523438	-42.732174
1812.500000	-43.153671
1813.476562	-43.330116
1814.453125	-43.054546
1815.429688	-43.634819
1816.406250	-43.025612
1817.382812	-43.691612
1818.359375	-42.916214
1819.335938	-43.381001
1820.312500	-42.718830
1821.289062	-42.655434
1822.265625	-42.993446
1823.242188	-42.996574
1824.218750	-43.049221
1825.195312	-42.919060
1826.171875	-43.726330
1827.148438	-43.682472
1828.125000	-42.509174
1829.101562	-42.932446
1830.078125	-43.489758
1831.054688	-42.726822
1832.031250	-42.755787
1833.007812	-42.516891
1833.984375	-43.066875
1834.960938	-42.158009
1835.937500	-42.399498
1836.914062	-42.929276
1837.890625	-43.077244
1838.867188	-43.681389
1839.843750	-43.608624
1840.820312	-43.778599
1841.796875	-43.784775
1842.773438	-43.513432
1843.750000	-43.062271
1844.726562	-42.812744
1845.703125	-43.047096
1846.679688	-42.744514
1847.656250	-43.035858
1848.632812	-44.205215
1849.609375	-43.383965
1850.585938	-43.713997
1851.562500	-43.298641
1852.539062	-43.453255
1853.515625	-42.600765
1854.492188	-43.313347
1855.468750	-44.227039
1856.445312	-43.550247
1857.421875	-42.701725
1858.398438	-44.023163
1859.375000	-43.360523
1860.351562	-43.139359
1861.328125	-42.965714
1862.304688	-43.361767
1863.281250	-44.472069
1864.257812	-43.461010
1865.234375	-43.044247
1866.210938	-43.512623
1867.187500	-44.050243
1868.164062	-42.922077
1869.140625	-43.409153
1870.117188	-44.138992
1871.093750	-44.354633
1872.070312	-43.398170
1873.046875	-43.815247
1874.023438	-42.835644
1875.000000	-43.255558
1875.976562	-43.727821
1876.953125	-43.741524
1877.929688	-43.165249
1878.906250	-43.704430
1879.882812	-43.408127
1880.859375	-42.904278
1881.835938	-43.103359
1882.812500	-43.133331
1883.789062	-44.097420
1884.765625	-43.152718
1885.742188	-43.378857
1886.718750	-43.652458
1887.695312	-44.242943
1888.671875	-44.377598
1889.648438	-44.148476
1890.625000	-43.715641
1891.601562	-43.925453
1892.578125	-42.509243
1893.554688	-43.054462
1894.531250	-43.485374
1895.507812	-45.329876
1896.484375	-44.329987
1897.460938	-43.410847
1898.437500	-43.535751
1899.414062	-44.274792
1900.390625	-44.343990
1901.367188	-43.736317
1902.343750	-44.845341
1903.320312	-43.935917
1904.296875	-44.949036
1905.273438	-44.736065
1906.250000	-43.944798
1907.226562	-44.597576
1908.203125	-44.555038
1909.179688	-44.625561
1910.156250	-43.925873
1911.132812	-44.545956
1912.109375	-44.896488
1913.085938	-44.475735
1914.062500	-44.286953
1915.039062	-46.245869
1916.015625	-45.138760
1916.992188	-45.829018
1917.968750	-43.974552
1918.945312	-44.322369
1919.921875	-45.641186
1920.898438	-45.652069
1921.875000	-44.782467
1922.851562	-44.380455
1923.828125	-44.504787
1924.804688	-45.322182
1925.781250	-44.618519
1926.757812	-45.057331
1927.734375	-45.194767
1928.710938	-45.450512
1929.687500	-45.496044
1930.664062	-45.652481
1931.640625	-45.533386
1932.617188	-45.982716
1933.593750	-45.601589
1934.570312	-45.331875
1935.546875	-45.124557
1936.523438	-45.503181
1937.500000	-45.807720
1938.476562	-45.285595
1939.453125	-46.574314
1940.429688	-45.617157
1941.406250	-45.789318
1942.382812	-45.781517
1943.359375	-46.182133
1944.335938	-46.616573
1945.312500	-46.643818
1946.289062	-45.638149
1947.265625	-46.726730
1948.242188	-46.556812
1949.218750	-46.190224
1950.195312	-46.283985
1951.171875	-47.350681
1952.148438	-47.288677
1953.125000	-46.974617
1954.101562	-46.147717
1955.078125	-45.831589
1956.054688	-46.639698
1957.031250	-46.568672
1958.007812	-46.840626
1958.984375	-46.539742
1959.960938	-46.601490
1960.937500	-47.623936
1961.914062	-47.051853
1962.890625	-46.284260
1963.867188	-46.690102
1964.843750	-46.760418
1965.820312	-46.939533
1966.796875	-47.102898
1967.773438	-47.597645
1968.750000	-47.579079
1969.726562	-47.092968
1970.703125	-47.669033
1971.679688	-47.513580
1972.656250	-46.662842
1973.632812	-47.195221
1974.609375	-47.469398
1975.585938	-47.018349
1976.562500	-46.548103
1977.539062	-47.153091
1978.515625	-48.484375
1979.492188	-47.973724
1980.468750	-47.917179
1981.445312	-47.738140
1982.421875	-47.449970
1983.398438	-46.685539
1984.375000	-47.420738
1985.351562	-46.498287
1986.328125	-46.866039
1987.304688	-47.288540
1988.281250	-47.710667
1989.257812	-46.781734
1990.234375	-48.375290
1991.210938	-48.119804
1992.187500	-48.002632
1993.164062	-47.046791
1994.140625	-47.104256
1995.117188	-46.993599
1996.093750	-46.627434
1997.070312	-46.158176
1998.046875	-47.487419
1999.023438	-48.221882
2000.000000	-48.046356
2000.976562	-47.243744
2001.953125	-47.393421
2002.929688	-47.126156
2003.906250	-47.448582
2004.882812	-47.097874
2005.859375	-47.022808
2006.835938	-47.673752
2007.812500	-47.006279
2008.789062	-47.359806
2009.765625	-48.008995
2010.742188	-47.014671
2011.718750	-47.075485
2012.695312	-47.387524
2013.671875	-46.700039
2014.648438	-46.379513
2015.625000	-46.145302
2016.601562	-47.357586
2017.578125	-47.864300
2018.554688	-47.371098
2019.531250	-47.704952
2020.507812	-47.939140
2021.484375	-47.939182
2022.460938	-47.193966
2023.437500	-46.482727
2024.414062	-46.951454
2025.390625	-46.163082
2026.367188	-46.653816
2027.343750	-46.553268
2028.320312	-47.409199
2029.296875	-46.527016
2030.273438	-45.823315
2031.250000	-46.863914
2032.226562	-46.455456
2033.203125	-47.410927
2034.179688	-46.806179
2035.156250	-47.222523
2036.132812	-46.812557
2037.109375	-46.568062
2038.085938	-46.506775
2039.062500	-46.187046
2040.039062	-46.537701
2041.015625	-45.711918
2041.992188	-46.290672
2042.968750	-47.170494
2043.945312	-46.655621
2044.921875	-46.518444
2045.898438	-46.303185
2046.875000	-46.650291
2047.851562	-45.545223
2048.828125	-45.465977
2049.804688	-46.051453
2050.781250	-45.107048
2051.757812	-46.056656
2052.734375	-45.396481
2053.710938	-44.632298
2054.687500	-46.458149
2055.664062	-43.698303
2056.640625	-45.546528
2057.617188	-46.233395
2058.593750	-45.743439
2059.570312	-45.949406
2060.546875	-45.155212
2061.523438	-45.576859
2062.500000	-44.947639
2063.476562	-45.877411
2064.453125	-46.151012
2065.429688	-45.247116
2066.406250	-46.159309
2067.382812	-45.225441
2068.359375	-45.723557
2069.335938	-46.466831
2070.312500	-45.323891
2071.289062	-45.642357
2072.265625	-44.714859
2073.242188	-44.684887
2074.218750	-45.296215
2075.195312	-45.474628
2076.171875	-45.300117
2077.148438	-45.781490
2078.125000	-44.920837
2079.101562	-44.697048
2080.078125	-45.190845
2081.054688	-45.366127
2082.031250	-44.227951
2083.007812	-44.698318
2083.984375	-46.456528
2084.960938	-45.975983
2085.937500	-45.807655
2086.914062	-46.020927
2087.890625	-45.468140
2088.867188	-45.352390
2089.843750	-45.958267
2090.820312	-45.910587
2091.796875	-45.658070
2092.773438	-44.327789
2093.750000	-45.690350
2094.726562	-46.102989
2095.703125	-45.789486
2096.679688	-45.487854
2097.656250	-45.434235
2098.632812	-45.177689
2099.609375	-43.786854
2100.585938	-45.648884
2101.562500	-45.421558
2102.539062	-44.822613
2103.515625	-45.253891
2104.492188	-46.177464
2105.468750	-45.401993
2106.445312	-45.709545
2107.421875	-44.504246
2108.398438	-46.454140
2109.375000	-44.854427
2110.351562	-43.828049
2111.328125	-45.964439
2112.304688	-45.102703
2113.281250	-44.700150
2114.257812	-43.525478
2115.234375	-45.652187
2116.210938	-45.313984
2117.187500	-44.407104
2118.164062	-45.899368
2119.140625	-45.921185
2120.117188	-45.740570
2121.093750	-46.369953
2122.070312	-44.797062
2123.046875	-44.958801
2124.023438	-45.640083
2125.000000	-46.731243
2125.976562	-45.386852
2126.953125	-45.109612
2127.929688	-46.822876
2128.906250	-46.201988
2129.882812	-46.464504
2130.859375	-47.030994
2131.835938	-47.787193
2132.812500	-46.864819
2133.789062	-46.666531
2134.765625	-45.612587
2135.742188	-47.133381
2136.718750	-46.553276
2137.695312	-45.993008
2138.671875	-46.585945
2139.648438	-46.667004
2140.625000	-47.041370
2141.601562	-47.105457
2142.578125	-47.203903
2143.554688	-48.032654
2144.531250	-47.899662
2145.507812	-47.325256
2146.484375	-46.932373
2147.460938	-47.388920
2148.437500	-47.904869
2149.414062	-47.919319
2150.390625	-47.402653
2151.367188	-47.556995
2152.343750	-48.189381
2153.320312	-48.175205
2154.296875	-47.033840
2155.273438	-47.983261
2156.250000	-48.238670
2157.226562	-47.675838
2158.203125	-48.134026
2159.179688	-47.505566
2160.156250	-47.995853
2161.132812	-48.131519
2162.109375	-48.746040
2163.085938	-47.518265
2164.062500	-48.221390
2165.039062	-47.636368
2166.015625	-48.126404
2166.992188	-48.368546
2167.968750	-48.891796
2168.945312	-48.293194
2169.921875	-48.671879
2170.898438	-48.319691
2171.875000	-48.274849
2172.851562	-48.667324
2173.828125	-48.217068
2174.804688	-49.409809
2175.781250	-48.389297
2176.757812	-47.273254
2177.734375	-48.921158
2178.710938	-48.088226
2179.687500	-47.893162
2180.664062	-47.973404
2181.640625	-47.504795
2182.617188	-48.019253
2183.593750	-47.509457
2184.570312	-47.246220
2185.546875	-46.970661
2186.523438	-47.511227
2187.500000	-48.322620
2188.476562	-48.287971
2189.453125	-47.354397
2190.429688	-47.201042
2191.406250	-46.346992
2192.382812	-47.599010
2193.359375	-46.943188
2194.335938	-47.461315
2195.312500	-46.952930
2196.289062	-48.000198
2197.265625	-47.465469
2198.242188	-46.211361
2199.218750	-46.038662
2200.195312	-46.912174
2201.171875	-46.802761
2202.148438	-47.401241
2203.125000	-46.567917
2204.101562	-46.885448
2205.078125	-46.376827
2206.054688	-45.932636
2207.031250	-46.660969
2208.007812	-45.740726
2208.984375	-46.249691
2209.960938	-46.115913
2210.937500	-44.742069
2211.914062	-46.126484
2212.890625	-46.133533
2213.867188	-45.036114
2214.843750	-44.842361
2215.820312	-45.548687
2216.796875	-44.272053
2217.773438	-44.423714
2218.750000	-45.500011
2219.726562	-46.047546
2220.703125	-45.772659
2221.679688	-45.109585
2222.656250	-45.116840
2223.632812	-44.804741
2224.609375	-44.101391
2225.585938	-45.754112
2226.562500	-44.392910
2227.539062	-45.249989
2228.515625	-45.286633
2229.492188	-44.917877
2230.468750	-43.716724
2231.445312	-44.395634
2232.421875	-45.209515
2233.398438	-44.222561
2234.375000	-43.956066
2235.351562	-44.180714
2236.328125	-45.006329
2237.304688	-45.213631
2238.281250	-44.555874
2239.257812	-45.274227
2240.234375	-43.419033
2241.210938	-44.324440
2242.187500	-45.015541
2243.164062	-45.867828
2244.140625	-44.690434
2245.117188	-44.797119
2246.093750	-44.674652
2247.070312	-44.529419
2248.046875	-44.871544
2249.023438	-43.707603
2250.000000	-43.539146
2250.976562	-43.538773
2251.953125	-45.221321
2252.929688	-44.379036
2253.906250	-44.287926
2254.882812	-45.348816
2255.859375	-46.035156
2256.835938	-44.964943
2257.812500	-43.668800
2258.789062	-45.254505
2259.765625	-43.916859
2260.742188	-43.545933
2261.718750	-43.708443
2262.695312	-43.753380
2263.671875	-43.823311
2264.648438	-43.932041
2265.625000	-43.937309
2266.601562	-44.323513
2267.578125	-44.879791
2268.554688	-45.215446
2269.531250	-44.859005
2270.507812	-45.969032
2271.484375	-46.355999
2272.460938	-45.075417
2273.437500	-44.638618
2274.414062	-45.360771
2275.390625	-45.007816
2276.367188	-44.961300
2277.343750	-44.242317
2278.320312	-43.672310
2279.296875	-45.644020
2280.273438	-45.948162
2281.250000	-44.928852
2282.226562	-45.424213
2283.203125	-45.116703
2284.179688	-45.657299
2285.156250	-45.192013
2286.132812	-46.386021
2287.109375	-46.118271
2288.085938	-45.065052
2289.062500	-46.160130
2290.039062	-46.397869
2291.015625	-46.967682
2291.992188	-47.348030
2292.968750	-46.586643
2293.945312	-46.553200
2294.921875	-46.876301
2295.898438	-47.708530
2296.875000	-48.106808
2297.851562	-48.373886
2298.828125	-47.102409
2299.804688	-46.135689
2300.781250	-47.194752
2301.757812	-47.120377
2302.734375	-48.190479
2303.710938	-48.749657
2304.687500	-48.445683
2305.664062	-48.180744
2306.640625	-47.801540
2307.617188	-47.555454
2308.593750	-47.522224
2309.570312	-46.582363
2310.546875	-46.313457
2311.523438	-48.135139
2312.500000	-48.720352
2313.476562	-48.667355
2314.453125	-48.143524
2315.429688	-46.768967
2316.406250	-47.294708
2317.382812	-47.185612
2318.359375	-46.630688
2319.335938	-47.820457
2320.312500	-48.924728
2321.289062	-48.867950
2322.265625	-49.331703
2323.242188	-48.877712
2324.218750	-48.635757
2325.195312	-48.685566
2326.171875	-49.367607
2327.148438	-48.917419
2328.125000	-49.310795
2329.101562	-48.144833
2330.078125	-50.017437
2331.054688	-49.442528
2332.031250	-49.547092
2333.007812	-49.575161
2333.984375	-48.350567
2334.960938	-48.777061
2335.937500	-48.257126
2336.914062	-47.774670
2337.890625	-49.134796
2338.867188	-49.408531
2339.843750	-49.563343
2340.820312	-49.959225
2341.796875	-49.480762
2342.773438	-48.058601
2343.750000	-47.613312
2344.726562	-48.420868
2345.703125	-49.303215
2346.679688	-50.026474
2347.656250	-49.663025
2348.632812	-48.956093
2349.609375	-49.849419
2350.585938	-48.685455
2351.562500	-48.468124
2352.539062	-48.637028
2353.515625	-48.353081
2354.492188	-49.498970
2355.468750	-49.437431
2356.445312	-49.346878
2357.421875	-49.819012
2358.398438	-49.012566
2359.375000	-48.561081
2360.351562	-49.155834
2361.328125	-48.718227
2362.304688	-48.440765
2363.281250	-49.364773
2364.257812	-48.844391
2365.234375	-49.542988
2366.210938	-49.728699
2367.187500	-49.238647
2368.164062	-48.823078
2369.140625	-48.830315
2370.117188	-48.961262
2371.093750	-49.802414
2372.070312	-48.653111
2373.046875	-49.090801
2374.023438	-49.898960
2375.000000	-48.707157
2375.976562	-48.890652
2376.953125	-48.184303
2377.929688	-48.711384
2378.906250	-49.170635
2379.882812	-48.930210
2380.859375	-49.703773
2381.835938	-48.797527
2382.812500	-48.526997
2383.789062	-49.385307
2384.765625	-49.764874
2385.742188	-48.803818
2386.718750	-49.809101
2387.695312	-48.839516
2388.671875	-47.679016
2389.648438	-48.049564
2390.625000	-49.618679
2391.601562	-49.431705
2392.578125	-50.011875
2393.554688	-48.619034
2394.531250	-49.100925
2395.507812	-49.885342
2396.484375	-48.732124
2397.460938	-48.563412
2398.437500	-49.217415
2399.414062	-48.550186
2400.390625	-47.790726
2401.367188	-48.510937
2402.343750	-47.703415
2403.320312	-48.693413
2404.296875	-49.599693
2405.273438	-49.043804
2406.250000	-49.091129
2407.226562	-49.632248
2408.203125	-48.823215
2409.179688	-49.142326
2410.156250	-49.882492
2411.132812	-49.075886
2412.109375	-49.900806
2413.085938	-50.032818
2414.062500	-49.870888
2415.039062	-49.292137
2416.015625	-49.596741
2416.992188	-49.054565
2417.968750	-49.459686
2418.945312	-49.064552
2419.921875	-49.468323
2420.898438	-49.515823
2421.875000	-48.951504
2422.851562	-48.805679
2423.828125	-48.888206
2424.804688	-48.614754
2425.781250	-48.765957
2426.757812	-49.849480
2427.734375	-48.765343
2428.710938	-49.083286
2429.687500	-49.180260
2430.664062	-48.422112
2431.640625	-48.188782
2432.617188	-49.075821
2433.593750	-49.756840
2434.570312	-49.554016
2435.546875	-49.482506
2436.523438	-49.219608
2437.500000	-49.267487
2438.476562	-49.041622
2439.453125	-50.776463
2440.429688	-50.172073
2441.406250	-49.310120
2442.382812	-49.621468
2443.359375	-49.513073
2444.335938	-49.533642
2445.312500	-49.581509
2446.289062	-49.600166
2447.265625	-49.594254
2448.242188	-49.342743
2449.218750	-49.136539
2450.195312	-49.841911
2451.171875	-48.992409
2452.148438	-49.010521
2453.125000	-50.028233
2454.101562	-49.264736
2455.078125	-48.602345
2456.054688	-49.486599
2457.031250	-48.938393
2458.007812	-49.056335
2458.984375	-49.383110
2459.960938	-48.952801
2460.937500	-49.133606
2461.914062	-49.048103
2462.890625	-49.234993
2463.867188	-49.368572
2464.843750	-49.890575
2465.820312	-49.745510
2466.796875	-49.746868
2467.773438	-49.862965
2468.750000	-50.191235
2469.726562	-50.570854
2470.703125	-50.506733
2471.679688	-49.257854
2472.656250	-49.997288
2473.632812	-50.538082
2474.609375	-49.838360
2475.585938	-49.240841
2476.562500	-49.381073
2477.539062	-48.825466
2478.515625	-50.087334
2479.492188	-49.927040
2480.468750	-50.044403
2481.445312	-50.376026
2482.421875	-49.403816
2483.398438	-49.898804
2484.375000	-49.649273
2485.351562	-49.915180
2486.328125	-50.591309
2487.304688	-49.751900
2488.281250	-49.917419
2489.257812	-49.633728
2490.234375	-50.059536
2491.210938	-50.099491
2492.187500	-50.328491
2493.164062	-49.633522
2494.140625	-50.541115
2495.117188	-49.573795
2496.093750	-50.892796
2497.070312	-49.494347
2498.046875	-49.204384
2499.023438	-49.861282
2500.000000	-50.054523
2500.976562	-49.870598
2501.953125	-49.801548
2502.929688	-49.580601
2503.906250	-49.323433
2504.882812	-49.867249
2505.859375	-49.737591
2506.835938	-49.347912
2507.812500	-49.750614
2508.789062	-49.879536
2509.765625	-49.702454
2510.742188	-50.208111
2511.718750	-49.972858
2512.695312	-49.631264
2513.671875	-49.528362
2514.648438	-49.947338
2515.625000	-49.914715
2516.601562	-49.077503
2517.578125	-50.086037
2518.554688	-50.338707
2519.531250	-49.590969
2520.507812	-49.505154
2521.484375	-50.071640
2522.460938	-49.815731
2523.437500	-49.255619
2524.414062	-50.243626
2525.390625	-51.220100
2526.367188	-49.740829
2527.343750	-49.575272
2528.320312	-49.008675
2529.296875	-49.608234
2530.273438	-49.725391
2531.250000	-49.473915
2532.226562	-50.255955
2533.203125	-49.656002
2534.179688	-50.332577
2535.156250	-50.571865
2536.132812	-49.528614
2537.109375	-49.577221
2538.085938	-49.751942
2539.062500	-49.363167
2540.039062	-49.242458
2541.015625	-49.813000
2541.992188	-50.230000
2542.968750	-49.321606
2543.945312	-49.787453
2544.921875	-49.999275
2545.898438	-50.066135
2546.875000	-49.536423
2547.851562	-49.283756
2548.828125	-49.780651
2549.804688	-49.588932
2550.781250	-47.767738
2551.757812	-49.694130
2552.734375	-50.689812
2553.710938	-49.479000
2554.687500	-50.306519
2555.664062	-49.844349
2556.640625	-50.584839
2557.617188	-49.982658
2558.593750	-49.384510
2559.570312	-49.319691
2560.546875	-49.654758
2561.523438	-49.181423
2562.500000	-48.853424
2563.476562	-49.349861
2564.453125	-49.358543
2565.429688	-49.502083
2566.406250	-49.507931
2567.382812	-49.262573
2568.359375	-49.800858
2569.335938	-49.655834
2570.312500	-49.087524
2571.289062	-49.682774
2572.265625	-48.641693
2573.242188	-49.926376
2574.218750	-48.832039
2575.195312	-49.028671
2576.171875	-49.536484
2577.148438	-49.059349
2578.125000	-49.079006
2579.101562	-49.595882
2580.078125	-49.591808
2581.054688	-49.441971
2582.031250	-49.285686
2583.007812	-50.019512
2583.984375	-49.039738
2584.960938	-49.553123
2585.937500	-48.573166
2586.914062	-48.363560
2587.890625	-49.215340
2588.867188	-49.333065
2589.843750	-49.752544
2590.820312	-48.506664
2591.796875	-49.262180
2592.773438	-48.651966
2593.750000	-49.773209
2594.726562	-48.817955
2595.703125	-49.711781
2596.679688	-49.962292
2597.656250	-48.942524
2598.632812	-49.517628
2599.609375	-48.942833
2600.585938	-48.652145
2601.562500	-49.292927
2602.539062	-48.778458
2603.515625	-48.692509
2604.492188	-48.205135
2605.468750	-48.817951
2606.445312	-49.035080
2607.421875	-49.563015
2608.398438	-50.258476
2609.375000	-48.419025
2610.351562	-48.879368
2611.328125	-49.666439
2612.304688	-48.561676
2613.281250	-49.210159
2614.257812	-50.236389
2615.234375	-49.310493
2616.210938	-48.565624
2617.187500	-49.510029
2618.164062	-48.841125
2619.140625	-48.751526
2620.117188	-49.168087
2621.093750	-49.330376
2622.070312	-49.821323
2623.046875	-49.035820
2624.023438	-48.547920
2625.000000	-48.713852
2625.976562	-49.434006
2626.953125	-48.331398
2627.929688	-48.864620
2628.906250	-49.411587
2629.882812	-49.495609
2630.859375	-49.064789
2631.835938	-48.885983
2632.812500	-48.682327
2633.789062	-49.800636
2634.765625	-48.969082
2635.742188	-49.032284
2636.718750	-49.139503
2637.695312	-49.477352
2638.671875	-48.709114
2639.648438	-49.753765
2640.625000	-48.800560
2641.601562	-49.205631
2642.578125	-49.778194
2643.554688	-49.048847
2644.531250	-49.584244
2645.507812	-48.802299
2646.484375	-49.504078
2647.460938	-49.077888
2648.437500	-49.213135
2649.414062	-50.057499
2650.390625	-50.670982
2651.367188	-49.101635
2652.343750	-49.712921
2653.320312	-49.094021
2654.296875	-48.968201
2655.273438	-48.647270
2656.250000	-50.185295
2657.226562	-49.533443
2658.203125	-49.844200
2659.179688	-49.344879
2660.156250	-49.392910
2661.132812	-49.059166
2662.109375	-49.120777
2663.085938	-49.404987
2664.062500	-49.734283
2665.039062	-49.814236
2666.015625	-49.280609
2666.992188	-48.912846
2667.968750	-49.847298
2668.945312	-50.169083
2669.921875	-49.407448
2670.898438	-49.337234
2671.875000	-50.071243
2672.851562	-49.368847
2673.828125	-49.309803
2674.804688	-49.376411
2675.781250	-48.937717
2676.757812	-50.452003
2677.734375	-50.423378
2678.710938	-50.199966
2679.687500	-49.491219
2680.664062	-49.388481
2681.640625	-49.243309
2682.617188	-49.731869
2683.593750	-48.859238
2684.570312	-49.256886
2685.546875	-49.898605
2686.523438	-49.731976
2687.500000	-49.678890
2688.476562	-49.878502
2689.453125	-49.850159
2690.429688	-49.037277
2691.406250	-49.537106
2692.382812	-50.426594
2693.359375	-49.110268
2694.335938	-49.379547
2695.312500	-49.051804
2696.289062	-49.580547
2697.265625	-49.140152
2698.242188	-48.634418
2699.218750	-49.496857
2700.195312	-48.412807
2701.171875	-49.280415
2702.148438	-47.890358
2703.125000	-49.525196
2704.101562	-49.073471
2705.078125	-49.797432
2706.054688	-48.872219
2707.031250	-48.583820
2708.007812	-49.974606
2708.984375	-49.102020
2709.960938	-49.028690
2710.937500	-49.328262
2711.914062	-48.593594
2712.890625	-49.004478
2713.867188	-49.299725
2714.843750	-48.775799
2715.820312	-49.991158
2716.796875	-49.343273
2717.773438	-49.367821
2718.750000	-48.318611
2719.726562	-49.131615
2720.703125	-49.030369
2721.679688	-49.864048
2722.656250	-49.863956
2723.632812	-49.151955
2724.609375	-49.250725
2725.585938	-49.379993
2726.562500	-49.226551
2727.539062	-49.507050
2728.515625	-49.177803
2729.492188	-48.897949
2730.468750	-49.307838
2731.445312	-49.075195
2732.421875	-48.487030
2733.398438	-48.619110
2734.375000	-48.356102
2735.351562	-49.037941
2736.328125	-49.588387
2737.304688	-48.586269
2738.281250	-48.513557
2739.257812	-49.005230
2740.234375	-48.838818
2741.210938	-48.976898
2742.187500	-48.988609
2743.164062	-49.407372
2744.140625	-49.829327
2745.117188	-47.640949
2746.093750	-48.349136
2747.070312	-49.288681
2748.046875	-48.646179
2749.023438	-48.298084
2750.000000	-48.127213
2750.976562	-49.065090
2751.953125	-48.178368
2752.929688	-48.297409
2753.906250	-48.621174
2754.882812	-48.407551
2755.859375	-49.064651
2756.835938	-49.130714
2757.812500	-47.953499
2758.789062	-48.034363
2759.765625	-48.601887
2760.742188	-48.329460
2761.718750	-47.779594
2762.695312	-48.657990
2763.671875	-47.429447
2764.648438	-48.520653
2765.625000	-47.864437
2766.601562	-47.932034
2767.578125	-48.070480
2768.554688	-48.243855
2769.531250	-47.909084
2770.507812	-48.104431
2771.484375	-48.463860
2772.460938	-48.399513
2773.437500	-47.534767
2774.414062	-48.178444
2775.390625	-47.488453
2776.367188	-48.082142
2777.343750	-47.971668
2778.320312	-47.894440
2779.296875	-47.649670
2780.273438	-47.749126
2781.250000	-48.020275
2782.226562	-47.721798
2783.203125	-47.766796
2784.179688	-47.573578
2785.156250	-48.322868
2786.132812	-47.603687
2787.109375	-47.950645
2788.085938	-47.126797
2789.062500	-48.935604
2790.039062	-47.542873
2791.015625	-47.759922
2791.992188	-47.613098
2792.968750	-47.530212
2793.945312	-48.100880
2794.921875	-47.218014
2795.898438	-47.745010
2796.875000	-47.852535
2797.851562	-48.316196
2798.828125	-48.107014
2799.804688	-47.799908
2800.781250	-46.717518
2801.757812	-47.221004
2802.734375	-47.059761
2803.710938	-46.441261
2804.687500	-47.133575
2805.664062	-47.762726
2806.640625	-47.556774
2807.617188	-47.570232
2808.593750	-47.082203
2809.570312	-46.934013
2810.546875	-47.473804
2811.523438	-47.635529
2812.500000	-47.736076
2813.476562	-48.072506
2814.453125	-48.037365
2815.429688	-47.839882
2816.406250	-47.419231
2817.382812	-46.891769
2818.359375	-47.129925
2819.335938	-47.465435
2820.312500	-47.380650
2821.289062	-47.070915
2822.265625	-47.185017
2823.242188	-47.498306
2824.218750	-48.207417
2825.195312	-47.450066
2826.171875	-46.920849
2827.148438	-47.263733
2828.125000	-48.437885
2829.101562	-46.927696
2830.078125	-47.012432
2831.054688	-46.926922
2832.031250	-47.393982
2833.007812	-47.690235
2833.984375	-47.300846
2834.960938	-46.920689
2835.937500	-47.281010
2836.914062	-47.531445
2837.890625	-47.651985
2838.867188	-47.303677
2839.843750	-47.862049
2840.820312	-47.613045
2841.796875	-47.246662
2842.773438	-46.612473
2843.750000	-46.751694
2844.726562	-47.011093
2845.703125	-46.303303
2846.679688	-47.091202
2847.656250	-47.429222
2848.632812	-46.403099
2849.609375	-46.354061
2850.585938	-47.026630
2851.562500	-46.184895
2852.539062	-46.850616
2853.515625	-46.458183
2854.492188	-47.748596
2855.468750	-46.796310
2856.445312	-47.446125
2857.421875	-46.424183
2858.398438	-46.625717
2859.375000	-47.015236
2860.351562	-46.909603
2861.328125	-46.059975
2862.304688	-46.049061
2863.281250	-46.415718
2864.257812	-46.305611
2865.234375	-46.169521
2866.210938	-46.391960
2867.187500	-46.985542
2868.164062	-46.685547
2869.140625	-45.981007
2870.117188	-45.452290
2871.093750	-46.198856
2872.070312	-46.072212
2873.046875	-46.354778
2874.023438	-46.454445
2875.000000	-45.530499
2875.976562	-46.253571
2876.953125	-46.055149
2877.929688	-46.538364
2878.906250	-45.825062
2879.882812	-45.530560
2880.859375	-46.417091
2881.835938	-46.129307
2882.812500	-45.415646
2883.789062	-46.038250
2884.765625	-45.819504
2885.742188	-46.334038
2886.718750	-46.818722
2887.695312	-47.031055
2888.671875	-45.535816
2889.648438	-46.029900
2890.625000	-45.621475
2891.601562	-45.593307
2892.578125	-46.267624
2893.554688	-46.139397
2894.531250	-46.102371
2895.507812	-45.989265
2896.484375	-46.074036
2897.460938	-46.600029
2898.437500	-46.965298
2899.414062	-46.166016
2900.390625	-46.600857
2901.367188	-46.545700
2902.343750	-46.043415
2903.320312	-46.180740
2904.296875	-46.788372
2905.273438	-46.331886
2906.250000	-46.122070
2907.226562	-46.331310
2908.203125	-45.592739
2909.179688	-46.100124
2910.156250	-45.894321
2911.132812	-45.499008
2912.109375	-46.226021
2913.085938	-46.131065
2914.062500	-45.952621
2915.039062	-46.091866
2916.015625	-46.550922
2916.992188	-46.678047
2917.968750	-46.035522
2918.945312	-45.526558
2919.921875	-45.510864
2920.898438	-45.394722
2921.875000	-46.522053
2922.851562	-45.064510
2923.828125	-45.203938
2924.804688	-45.474678
2925.781250	-45.478374
2926.757812	-45.326576
2927.734375	-45.572430
2928.710938	-45.869038
2929.687500	-45.074528
2930.664062	-44.729145
2931.640625	-45.405548
2932.617188	-45.640636
2933.593750	-45.706760
2934.570312	-45.049591
2935.546875	-45.670811
2936.523438	-44.638756
2937.500000	-45.526520
2938.476562	-44.919876
2939.453125	-46.031868
2940.429688	-46.756989
2941.406250	-45.148586
2942.382812	-45.289024
2943.359375	-45.969048
2944.335938	-45.577065
2945.312500	-45.031433
2946.289062	-45.357063
2947.265625	-45.371021
2948.242188	-45.683079
2949.218750	-45.549072
2950.195312	-45.821117
2951.171875	-45.521358
2952.148438	-46.536686
2953.125000	-46.303883
2954.101562	-45.142078
2955.078125	-46.137672
2956.054688	-45.122833
2957.031250	-45.476299
2958.007812	-46.186409
2958.984375	-45.737659
2959.960938	-45.528774
2960.937500	-45.653877
2961.914062	-45.345154
2962.890625	-45.761269
2963.867188	-46.429348
2964.843750	-45.249935
2965.820312	-45.849552
2966.796875	-44.777084
2967.773438	-45.634674
2968.750000	-45.766220
2969.726562	-45.849701
2970.703125	-45.182331
2971.679688	-45.608852
2972.656250	-44.422653
2973.632812	-44.932056
2974.609375	-44.841400
2975.585938	-44.610458
2976.562500	-45.392605
2977.539062	-45.344997
2978.515625	-45.693413
2979.492188	-45.590485
2980.468750	-44.667564
2981.445312	-45.255455
2982.421875	-44.743343
2983.398438	-44.968143
2984.375000	-45.400806
2985.351562	-45.348988
2986.328125	-45.262032
2987.304688	-44.074966
2988.281250	-44.840405
2989.257812	-44.620796
2990.234375	-44.753220
2991.210938	-45.691708
2992.187500	-44.913677
2993.164062	-44.913612
2994.140625	-44.457214
2995.117188	-45.209076
2996.093750	-44.485535
2997.070312	-44.492908
2998.046875	-44.841461
2999.023438	-44.330029
3000.000000	-43.828659
3000.976562	-44.508358
3001.953125	-44.897793
3002.929688	-44.276695
3003.906250	-44.349590
3004.882812	-44.573223
3005.859375	-44.423153
3006.835938	-43.957169
3007.812500	-44.198864
3008.789062	-43.699383
3009.765625	-44.972492
3010.742188	-43.891304
3011.718750	-43.751106
3012.695312	-43.993176
3013.671875	-44.709972
3014.648438	-43.998734
3015.625000	-42.952347
3016.601562	-44.579433
3017.578125	-44.664742
3018.554688	-43.857693
3019.531250	-43.690830
3020.507812	-44.355953
3021.484375	-43.965454
3022.460938	-43.644306
3023.437500	-43.860050
3024.414062	-44.416435
3025.390625	-43.789143
3026.367188	-42.862427
3027.343750	-43.188515
3028.320312	-43.271111
3029.296875	-43.093876
3030.273438	-44.011074
3031.250000	-43.827942
3032.226562	-43.156918
3033.203125	-43.766155
3034.179688	-43.904564
3035.156250	-43.312256
3036.132812	-42.471317
3037.109375	-42.543446
3038.085938	-43.458546
3039.062500	-43.553894
3040.039062	-43.160549
3041.015625	-43.491920
3041.992188	-42.886120
3042.968750	-42.277077
3043.945312	-43.084545
3044.921875	-43.765163
3045.898438	-43.226505
3046.875000	-42.439732
3047.851562	-43.534866
3048.828125	-42.735252
3049.804688	-42.957218
3050.781250	-43.747475
3051.757812	-42.796753
3052.734375	-41.838253
3053.710938	-43.386330
3054.687500	-42.414082
3055.664062	-42.450363
3056.640625	-42.969383
3057.617188	-43.061474
3058.593750	-42.088337
3059.570312	-41.211388
3060.546875	-41.166023
3061.523438	-43.004726
3062.500000	-42.324398
3063.476562	-41.865578
3064.453125	-42.093674
3065.429688	-42.508717
3066.406250	-41.286114
3067.382812	-40.762268
3068.359375	-41.130451
3069.335938	-42.379654
3070.312500	-40.424820
3071.289062	-40.371113
3072.265625	-41.514030
3073.242188	-41.658627
3074.218750	-42.756851
3075.195312	-39.778847
3076.171875	-40.932598
3077.148438	-40.083691
3078.125000	-40.635014
3079.101562	-40.661350
3080.078125	-39.975716
3081.054688	-39.884022
3082.031250	-40.892899
3083.007812	-40.328133
3083.984375	-39.004143
3084.960938	-40.419212
3085.937500	-40.406174
3086.914062	-40.814899
3087.890625	-38.874973
3088.867188	-40.360455
3089.843750	-40.258545
3090.820312	-39.625065
3091.796875	-39.148979
3092.773438	-39.695847
3093.750000	-39.812504
3094.726562	-39.557091
3095.703125	-39.421722
3096.679688	-39.394691
3097.656250	-38.624855
3098.632812	-39.172009
3099.609375	-39.876114
3100.585938	-40.092171
3101.562500	-40.417126
3102.539062	-40.058823
3103.515625	-38.397709
3104.492188	-39.457790
3105.468750	-38.665955
3106.445312	-38.943970
3107.421875	-40.427860
3108.398438	-39.775528
3109.375000	-39.333759
3110.351562	-38.726864
3111.328125	-38.501022
3112.304688	-39.724552
3113.281250	-39.376637
3114.257812	-39.061485
3115.234375	-39.175983
3116.210938	-39.266277
3117.187500	-40.167747
3118.164062	-37.809631
3119.140625	-37.644688
3120.117188	-39.539177
3121.093750	-39.973911
3122.070312	-38.684441
3123.046875	-38.404282
3124.023438	-38.814880
3125.000000	-40.252132
3125.976562	-39.465519
3126.953125	-40.449402
3127.929688	-39.676033
3128.906250	-38.309765
3129.882812	-39.994144
3130.859375	-38.680321
3131.835938	-39.179066
3132.812500	-37.836895
3133.789062	-39.239090
3134.765625	-40.577927
3135.742188	-40.102863
3136.718750	-39.932369
3137.695312	-38.948864
3138.671875	-38.306152
3139.648438	-38.553322
3140.625000	-38.560661
3141.601562	-38.964706
3142.578125	-38.125084
3143.554688	-37.977837
3144.531250	-39.751461
3145.507812	-37.767483
3146.484375	-39.138718
3147.460938	-37.939594
3148.437500	-38.112045
3149.414062	-38.028778
3150.390625	-37.894054
3151.367188	-37.264359
3152.343750	-35.915390
3153.320312	-37.779598
3154.296875	-36.254440
3155.273438	-37.908092
3156.250000	-36.756329
3157.226562	-37.190853
3158.203125	-37.261383
3159.179688	-37.399757
3160.156250	-36.093079
3161.132812	-37.146053
3162.109375	-36.548550
3163.085938	-37.180607
3164.062500	-36.633949
3165.039062	-37.499428
3166.015625	-36.504780
3166.992188	-35.265263
3167.968750	-35.455418
3168.945312	-35.707172
3169.921875	-36.841747
3170.898438	-37.630390
3171.875000	-35.355072
3172.851562	-37.529827
3173.828125	-36.227097
3174.804688	-36.270218
3175.781250	-36.705383
3176.757812	-35.940899
3177.734375	-35.732037
3178.710938	-36.039505
3179.687500	-35.671886
3180.664062	-35.668053
3181.640625	-36.658924
3182.617188	-36.493355
3183.593750	-35.704300
3184.570312	-35.738430
3185.546875	-36.241234
3186.523438	-37.263355
3187.500000	-36.694702
3188.476562	-36.955803
3189.453125	-35.722511
3190.429688	-36.517181
3191.406250	-36.284515
3192.382812	-36.630157
3193.359375	-37.258400
3194.335938	-35.858463
3195.312500	-36.074806
3196.289062	-34.385792
3197.265625	-35.764687
3198.242188	-35.950119
3199.218750	-35.724804
3200.195312	-36.653282
3201.171875	-37.044155
3202.148438	-36.457142
3203.125000	-36.900028
3204.101562	-35.948517
3205.078125	-36.223309
3206.054688	-35.880844
3207.031250	-35.994499
3208.007812	-36.170662
3208.984375	-35.494637
3209.960938	-36.868694
3210.937500	-35.496777
3211.914062	-34.530636
3212.890625	-35.869888
3213.867188	-36.217495
3214.843750	-36.799179
3215.820312	-37.489788
3216.796875	-36.514172
3217.773438	-35.972095
3218.750000	-36.106632
3219.726562	-36.989830
3220.703125	-36.735565
3221.679688	-36.275524
3222.656250	-37.234249
3223.632812	-35.291210
3224.609375	-35.379185
3225.585938	-35.752296
3226.562500	-37.627979
3227.539062	-36.088718
3228.515625	-35.859917
3229.492188	-37.549755
3230.468750	-37.256702
3231.445312	-37.368477
3232.421875	-36.685986
3233.398438	-36.535107
3234.375000	-36.943493
3235.351562	-37.921402
3236.328125	-37.373611
3237.304688	-36.299301
3238.281250	-36.706215
3239.257812	-36.866943
3240.234375	-36.530289
3241.210938	-36.464565
3242.187500	-36.462593
3243.164062	-37.713047
3244.140625	-36.999237
3245.117188	-35.930767
3246.093750	-36.008572
3247.070312	-36.977810
3248.046875	-38.097054
3249.023438	-36.706417
3250.000000	-36.929066
3250.976562	-36.276848
3251.953125	-37.534786
3252.929688	-36.832764
3253.906250	-37.475677
3254.882812	-37.948524
3255.859375	-36.329899
3256.835938	-36.544476
3257.812500	-38.385654
3258.789062	-36.874126
3259.765625	-36.422359
3260.742188	-37.391659
3261.718750	-37.803406
3262.695312	-37.778908
3263.671875	-37.258148
3264.648438	-36.060913
3265.625000	-36.790630
3266.601562	-35.867413
3267.578125	-37.818279
3268.554688	-37.005619
3269.531250	-37.493988
3270.507812	-37.112648
3271.484375	-37.646961
3272.460938	-36.099697
3273.437500	-36.304752
3274.414062	-36.585033
3275.390625	-36.060760
3276.367188	-37.600464
3277.343750	-39.185120
3278.320312	-37.943558
3279.296875	-37.216328
3280.273438	-38.191555
3281.250000	-37.109665
3282.226562	-37.286137
3283.203125	-38.156345
3284.179688	-37.445473
3285.156250	-36.997295
3286.132812	-36.436085
3287.109375	-37.076366
3288.085938	-37.614372
3289.062500	-37.535805
3290.039062	-37.860455
3291.015625	-37.761982
3291.992188	-36.566540
3292.968750	-37.064034
3293.945312	-38.104706
3294.921875	-38.264416
3295.898438	-37.298279
3296.875000	-37.594124
3297.851562	-38.546921
3298.828125	-37.487286
3299.804688	-38.030598
3300.781250	-37.761326
3301.757812	-37.431038
3302.734375	-38.054375
3303.710938	-37.062740
3304.687500	-37.967186
3305.664062	-37.112087
3306.640625	-36.659210
3307.617188	-38.265217
3308.593750	-37.988575
3309.570312	-38.323692
3310.546875	-37.421402
3311.523438	-37.918442
3312.500000	-37.085323
3313.476562	-38.192039
3314.453125	-38.861900
3315.429688	-36.983833
3316.406250	-37.593117
3317.382812	-38.771969
3318.359375	-39.030811
3319.335938	-37.926224
3320.312500	-37.412937
3321.289062	-37.925869
3322.265625	-37.980854
3323.242188	-37.649426
3324.218750	-36.804832
3325.195312	-37.890987
3326.171875	-37.875626
3327.148438	-37.158390
3328.125000	-37.468498
3329.101562	-38.462845
3330.078125	-38.643181
3331.054688	-38.254791
3332.031250	-37.401241
3333.007812	-37.170837
3333.984375	-38.445427
3334.960938	-39.330017
3335.937500	-37.955933
3336.914062	-38.252308
3337.890625	-39.488731
3338.867188	-39.624962
3339.843750	-37.752472
3340.820312	-38.204361
3341.796875	-38.458401
3342.773438	-37.765514
3343.750000	-38.226727
3344.726562	-36.613106
3345.703125	-38.719543
3346.679688	-38.192459
3347.656250	-37.593899
3348.632812	-37.974426
3349.609375	-39.631062
3350.585938	-38.169525
3351.562500	-37.756805
3352.539062	-37.328117
3353.515625	-39.162441
3354.492188	-39.452621
3355.468750	-39.845581
3356.445312	-38.497242
3357.421875	-39.357445
3358.398438	-39.290123
3359.375000	-39.137997
3360.351562	-37.939739
3361.328125	-38.471157
3362.304688	-37.970798
3363.281250	-38.929001
3364.257812	-38.438129
3365.234375	-37.707035
3366.210938	-38.184235
3367.187500	-39.346077
3368.164062	-38.657303
3369.140625	-37.741352
3370.117188	-38.890198
3371.093750	-38.610031
3372.070312	-37.623959
3373.046875	-37.777542
3374.023438	-38.410889
3375.000000	-37.977283
3375.976562	-38.822285
3376.953125	-37.964962
3377.929688	-38.567978
3378.906250	-38.261681
3379.882812	-38.211426
3380.859375	-38.577759
3381.835938	-37.615105
3382.812500	-37.763275
3383.789062	-37.080849
3384.765625	-37.862545
3385.742188	-38.334389
3386.718750	-39.652866
3387.695312	-39.719379
3388.671875	-38.518612
3389.648438	-38.163521
3390.625000	-37.219601
3391.601562	-38.426060
3392.578125	-37.537327
3393.554688	-38.165596
3394.531250	-37.567646
3395.507812	-37.750488
3396.484375	-39.600544
3397.460938	-38.666416
3398.437500	-37.752724
3399.414062	-38.068737
3400.390625	-38.814354
3401.367188	-39.650505
3402.343750	-38.560738
3403.320312	-38.873440
3404.296875	-38.945835
3405.273438	-39.597588
3406.250000	-38.616978
3407.226562	-37.525578
3408.203125	-38.451931
3409.179688	-37.801357
3410.156250	-38.895252
3411.132812	-39.091793
3412.109375	-37.531235
3413.085938	-38.306564
3414.062500	-40.094864
3415.039062	-38.922726
3416.015625	-38.659233
3416.992188	-38.598934
3417.968750	-37.754940
3418.945312	-38.602211
3419.921875	-39.406120
3420.898438	-39.086704
3421.875000	-40.009789
3422.851562	-40.727467
3423.828125	-39.623280
3424.804688	-39.274090
3425.781250	-39.063671
3426.757812	-38.978142
3427.734375	-39.230507
3428.710938	-39.255592
3429.687500	-38.541492
3430.664062	-39.469189
3431.640625	-39.420498
3432.617188	-39.814224
3433.593750	-38.638077
3434.570312	-39.677277
3435.546875	-39.493568
3436.523438	-39.582901
3437.500000	-39.115444
3438.476562	-40.362446
3439.453125	-40.117397
3440.429688	-40.359600
3441.406250	-39.803688
3442.382812	-39.748493
3443.359375	-40.793449
3444.335938	-40.004833
3445.312500	-40.615944
3446.289062	-39.907146
3447.265625	-39.871826
3448.242188	-39.826065
3449.218750	-41.289955
3450.195312	-41.203754
3451.171875	-40.299080
3452.148438	-40.172295
3453.125000	-40.745224
3454.101562	-41.685181
3455.078125	-41.124329
3456.054688	-41.048275
3457.031250	-41.286118
3458.007812	-40.195919
3458.984375	-41.278801
3459.960938	-41.111759
3460.937500	-40.178249
3461.914062	-41.015793
3462.890625	-41.918694
3463.867188	-41.822899
3464.843750	-41.777111
3465.820312	-41.221760
3466.796875	-40.728973
3467.773438	-41.180161
3468.750000	-41.166142
3469.726562	-40.206444
3470.703125	-40.841587
3471.679688	-39.995178
3472.656250	-40.678768
3473.632812	-42.250523
3474.609375	-41.679848
3475.585938	-40.278076
3476.562500	-42.191315
3477.539062	-42.047649
3478.515625	-41.121346
3479.492188	-41.033997
3480.468750	-40.885292
3481.445312	-42.175583
3482.421875	-42.315586
3483.398438	-41.365620
3484.375000	-41.801319
3485.351562	-42.106842
3486.328125	-42.236187
3487.304688	-42.175018
3488.281250	-42.664833
3489.257812	-42.267933
3490.234375	-42.230358
3491.210938	-40.738884
3492.187500	-42.192120
3493.164062	-42.094994
3494.140625	-42.189938
3495.117188	-41.793694
3496.093750	-42.028130
3497.070312	-42.237816
3498.046875	-42.192894
3499.023438	-41.809013
3500.000000	-42.810921
3500.976562	-41.610249
3501.953125	-42.274525
3502.929688	-42.848804
3503.906250	-42.348038
3504.882812	-42.746876
3505.859375	-42.699162
3506.835938	-42.916382
3507.812500	-42.417927
3508.789062	-42.415970
3509.765625	-43.040516
3510.742188	-44.099323
3511.718750	-41.592522
3512.695312	-41.976379
3513.671875	-42.653130
3514.648438	-42.088524
3515.625000	-42.566063
3516.601562	-42.445213
3517.578125	-42.373562
3518.554688	-42.287678
3519.531250	-42.333023
3520.507812	-42.897839
3521.484375	-43.338585
3522.460938	-43.016769
3523.437500	-43.329689
3524.414062	-42.474651
3525.390625	-43.077587
3526.367188	-43.149212
3527.343750	-42.799194
3528.320312	-42.381577
3529.296875	-41.871300
3530.273438	-43.568588
3531.250000	-42.675278
3532.226562	-43.145477
3533.203125	-42.831455
3534.179688	-42.970009
3535.156250	-43.029186
3536.132812	-43.240608
3537.109375	-43.014011
3538.085938	-43.290810
3539.062500	-43.504177
3540.039062	-42.555656
3541.015625	-43.637016
3541.992188	-43.178177
3542.968750	-43.364273
3543.945312	-41.956051
3544.921875	-42.975433
3545.898438	-42.642605
3546.875000	-41.794250
3547.851562	-42.749779
3548.828125	-43.661930
3549.804688	-43.383739
3550.781250	-43.330639
3551.757812	-43.206573
3552.734375	-42.800549
3553.710938	-41.708603
3554.687500	-41.960148
3555.664062	-42.576191
3556.640625	-42.050293
3557.617188	-42.080952
3558.593750	-42.386974
3559.570312	-43.039024
3560.546875	-43.103317
3561.523438	-42.834431
3562.500000	-43.026928
3563.476562	-42.444042
3564.453125	-43.269253
3565.429688	-42.565929
3566.406250	-41.793831
3567.382812	-43.022621
3568.359375	-41.932236
3569.335938	-42.913116
3570.312500	-42.094563
3571.289062	-41.392395
3572.265625	-41.422295
3573.242188	-43.174011
3574.218750	-42.676014
3575.195312	-42.907318
3576.171875	-42.645893
3577.148438	-41.088322
3578.125000	-43.183792
3579.101562	-42.345993
3580.078125	-42.095284
3581.054688	-42.133202
3582.031250	-42.409485
3583.007812	-41.795010
3583.984375	-42.152534
3584.960938	-42.863609
3585.937500	-41.759609
3586.914062	-41.645142
3587.890625	-41.973045
3588.867188	-42.384174
3589.843750	-42.183697
3590.820312	-42.072544
3591.796875	-42.395874
3592.773438	-41.605240
3593.750000	-41.875271
3594.726562	-42.537766
3595.703125	-42.407116
3596.679688	-41.390198
3597.656250	-42.579758
3598.632812	-42.157475
3599.609375	-42.383972
3600.585938	-41.906406
3601.562500	-42.832333
3602.539062	-42.163616
3603.515625	-41.299660
3604.492188	-41.497528
3605.468750	-42.075356
3606.445312	-42.422729
3607.421875	-42.267597
3608.398438	-41.816383
3609.375000	-42.769154
3610.351562	-42.283306
3611.328125	-41.546074
3612.304688	-40.927475
3613.281250	-41.926235
3614.257812	-42.602551
3615.234375	-42.354931
3616.210938	-42.921627
3617.187500	-41.973339
3618.164062	-41.671646
3619.140625	-41.911068
3620.117188	-42.186302
3621.093750	-42.033966
3622.070312	-42.310566
3623.046875	-41.468235
3624.023438	-42.277691
3625.000000	-42.284050
3625.976562	-42.340668
3626.953125	-41.701569
3627.929688	-41.376553
3628.906250	-40.539700
3629.882812	-42.335014
3630.859375	-41.513817
3631.835938	-42.680428
3632.812500	-41.762493
3633.789062	-42.721714
3634.765625	-41.635780
3635.742188	-41.680504
3636.718750	-42.477852
3637.695312	-42.181301
3638.671875	-41.949665
3639.648438	-41.648102
3640.625000	-42.327015
3641.601562	-42.186554
3642.578125	-43.120232
3643.554688	-42.732952
3644.531250	-42.284916
3645.507812	-41.903965
3646.484375	-42.580536
3647.460938	-41.588047
3648.437500	-41.766071
3649.414062	-41.026077
3650.390625	-42.319817
3651.367188	-41.706955
3652.343750	-41.637733
3653.320312	-41.916668
3654.296875	-41.526196
3655.273438	-41.669125
3656.250000	-41.793476
3657.226562	-42.489056
3658.203125	-42.754082
3659.179688	-42.875313
3660.156250	-42.608799
3661.132812	-42.588161
3662.109375	-42.158924
3663.085938	-42.047810
3664.062500	-43.336506
3665.039062	-42.366310
3666.015625	-42.141350
3666.992188	-41.757046
3667.968750	-43.254086
3668.945312	-42.338463
3669.921875	-42.185539
3670.898438	-42.989048
3671.875000	-43.169086
3672.851562	-42.757996
3673.828125	-43.017597
3674.804688	-43.339031
3675.781250	-42.540493
3676.757812	-41.959549
3677.734375	-42.847511
3678.710938	-42.491516
3679.687500	-42.740627
3680.664062	-42.160187
3681.640625	-42.422249
3682.617188	-42.954777
3683.593750	-43.560745
3684.570312	-41.957390
3685.546875	-42.423477
3686.523438	-42.306412
3687.500000	-42.616901
3688.476562	-43.385445
3689.453125	-41.707218
3690.429688	-41.566139
3691.406250	-43.294498
3692.382812	-43.436958
3693.359375	-42.883846
3694.335938	-43.310818
3695.312500	-43.204651
3696.289062	-42.559155
3697.265625	-41.808891
3698.242188	-42.519012
3699.218750	-41.566418
3700.195312	-42.602230
3701.171875	-42.327419
3702.148438	-41.649246
3703.125000	-42.326862
3704.101562	-43.269676
3705.078125	-42.434261
3706.054688	-41.190819
3707.031250	-42.822887
3708.007812	-42.601673
3708.984375	-42.528866
3709.960938	-42.494213
3710.937500	-42.987274
3711.914062	-43.079147
3712.890625	-43.010296
3713.867188	-42.458061
3714.843750	-42.164726
3715.820312	-43.291752
3716.796875	-42.854210
3717.773438	-42.582909
3718.750000	-42.866028
3719.726562	-42.609756
3720.703125	-42.756233
3721.679688	-41.981190
3722.656250	-41.557236
3723.632812	-42.695934
3724.609375	-43.346790
3725.585938	-42.193233
3726.562500	-41.725277
3727.539062	-42.735481
3728.515625	-43.084614
3729.492188	-41.490177
3730.468750	-41.540989
3731.445312	-42.050232
3732.421875	-42.301273
3733.398438	-42.119518
3734.375000	-42.678520
3735.351562	-42.639141
3736.328125	-43.043720
3737.304688	-42.484303
3738.281250	-42.227787
3739.257812	-41.244579
3740.234375	-42.656227
3741.210938	-42.279568
3742.187500	-41.461723
3743.164062	-42.145168
3744.140625	-42.379505
3745.117188	-41.570023
3746.093750	-42.646290
3747.070312	-42.610203
3748.046875	-42.631451
3749.023438	-42.743126
3750.000000	-41.551037
3750.976562	-42.623516
3751.953125	-42.328629
3752.929688	-42.700024
3753.906250	-41.675270
3754.882812	-42.458603
3755.859375	-41.789829
3756.835938	-42.317410
3757.812500	-42.349014
3758.789062	-43.772964
3759.765625	-43.384670
3760.742188	-42.561943
3761.718750	-42.200619
3762.695312	-41.722595
3763.671875	-41.538948
3764.648438	-42.541035
3765.625000	-42.454659
3766.601562	-43.218033
3767.578125	-43.473633
3768.554688	-42.384628
3769.531250	-42.635292
3770.507812	-43.261959
3771.484375	-42.436523
3772.460938	-41.903091
3773.437500	-42.742435
3774.414062	-42.269028
3775.390625	-43.143871
3776.367188	-42.682594
3777.343750	-42.723103
3778.320312	-41.706581
3779.296875	-42.613693
3780.273438	-42.443619
3781.250000	-42.612053
3782.226562	-41.959820
3783.203125	-42.937988
3784.179688	-43.922375
3785.156250	-44.075260
3786.132812	-41.972431
3787.109375	-42.911480
3788.085938	-43.237442
3789.062500	-43.264561
3790.039062	-43.314579
3791.015625	-43.057938
3791.992188	-42.396690
3792.968750	-43.951126
3793.945312	-44.105938
3794.921875	-43.014336
3795.898438	-43.185493
3796.875000	-44.463661
3797.851562	-42.226200
3798.828125	-43.336212
3799.804688	-43.083950
3800.781250	-44.059132
3801.757812	-42.797611
3802.734375	-42.525177
3803.710938	-43.111164
3804.687500	-42.645676
3805.664062	-43.795670
3806.640625	-43.498684
3807.617188	-44.298920
3808.593750	-43.091175
3809.570312	-43.161480
3810.546875	-43.216637
3811.523438	-43.274837
3812.500000	-43.628986
3813.476562	-42.999683
3814.453125	-43.439888
3815.429688	-44.141106
3816.406250	-43.527542
3817.382812	-44.363083
3818.359375	-43.481983
3819.335938	-44.386963
3820.312500	-43.405537
3821.289062	-43.043442
3822.265625	-44.174191
3823.242188	-43.488724
3824.218750	-42.884193
3825.195312	-43.211048
3826.171875	-44.497070
3827.148438	-43.157669
3828.125000	-43.377777
3829.101562	-44.764725
3830.078125	-44.296818
3831.054688	-42.729324
3832.031250	-44.196404
3833.007812	-43.560879
3833.984375	-43.368996
3834.960938	-43.160629
3835.937500	-43.677925
3836.914062	-43.615761
3837.890625	-43.735935
3838.867188	-45.068890
3839.843750	-44.320446
3840.820312	-44.037899
3841.796875	-43.517101
3842.773438	-44.165524
3843.750000	-43.571087
3844.726562	-44.197739
3845.703125	-43.383221
3846.679688	-43.492409
3847.656250	-43.078270
3848.632812	-42.814075
3849.609375	-43.896988
3850.585938	-43.708981
3851.562500	-43.916996
3852.539062	-45.108562
3853.515625	-43.762295
3854.492188	-42.404423
3855.468750	-43.421551
3856.445312	-43.844925
3857.421875	-43.192127
3858.398438	-43.976479
3859.375000	-43.002029
3860.351562	-43.787773
3861.328125	-43.259884
3862.304688	-43.880890
3863.281250	-44.556107
3864.257812	-44.200974
3865.234375	-43.178902
3866.210938	-43.690994
3867.187500	-44.020454
3868.164062	-44.160923
3869.140625	-43.014683
3870.117188	-43.675270
3871.093750	-43.815773
3872.070312	-43.630135
3873.046875	-43.150208
3874.023438	-43.414310
3875.000000	-43.292988
3875.976562	-43.631115
3876.953125	-42.901703
3877.929688	-43.493057
3878.906250	-43.647346
3879.882812	-43.449345
3880.859375	-42.365204
3881.835938	-43.664906
3882.812500	-43.194744
3883.789062	-42.757336
3884.765625	-42.913269
3885.742188	-44.055450
3886.718750	-42.940689
3887.695312	-42.740246
3888.671875	-43.231457
3889.648438	-42.395721
3890.625000	-42.998016
3891.601562	-42.314442
3892.578125	-42.431381
3893.554688	-42.388004
3894.531250	-42.699940
3895.507812	-42.408890
3896.484375	-42.535408
3897.460938	-42.907005
3898.437500	-42.713795
3899.414062	-42.904003
3900.390625	-42.216648
3901.367188	-43.050598
3902.343750	-41.969879
3903.320312	-42.677189
3904.296875	-42.683712
3905.273438	-42.333454
3906.250000	-42.719810
3907.226562	-42.137802
3908.203125	-42.517937
3909.179688	-43.667618
3910.156250	-41.894875
3911.132812	-43.389565
3912.109375	-43.545895
3913.085938	-43.816990
3914.062500	-42.905025
3915.039062	-42.022858
3916.015625	-42.294174
3916.992188	-42.762913
3917.968750	-42.521263
3918.945312	-41.854019
3919.921875	-42.995438
3920.898438	-42.857052
3921.875000	-42.350132
3922.851562	-42.267338
3923.828125	-42.471958
3924.804688	-42.889084
3925.781250	-42.679794
3926.757812	-42.517723
3927.734375	-42.217468
3928.710938	-42.470440
3929.687500	-42.202675
3930.664062	-42.934803
3931.640625	-42.676216
3932.617188	-42.730942
3933.593750	-42.318069
3934.570312	-42.693882
3935.546875	-43.394917
3936.523438	-42.534775
3937.500000	-42.181358
3938.476562	-43.595501
3939.453125	-42.478741
3940.429688	-42.974609
3941.406250	-42.133698
3942.382812	-42.654171
3943.359375	-42.067078
3944.335938	-42.469093
3945.312500	-42.910210
3946.289062	-42.157085
3947.265625	-42.177227
3948.242188	-41.981121
3949.218750	-42.821365
3950.195312	-43.231606
3951.171875	-42.649574
3952.148438	-42.538910
3953.125000	-43.375690
3954.101562	-42.680992
3955.078125	-43.052521
3956.054688	-41.612747
3957.031250	-43.237148
3958.007812	-43.879883
3958.984375	-43.209721
3959.960938	-42.627354
3960.937500	-43.078087
3961.914062	-42.945843
3962.890625	-43.118061
3963.867188	-43.319027
3964.843750	-43.207916
3965.820312	-43.377357
3966.796875	-42.509735
3967.773438	-42.879284
3968.750000	-42.068508
3969.726562	-42.679787
3970.703125	-43.419727
3971.679688	-43.445210
3972.656250	-42.827698
3973.632812	-43.187672
3974.609375	-42.948769
3975.585938	-44.606071
3976.562500	-43.607300
3977.539062	-43.055283
3978.515625	-42.948795
3979.492188	-43.297562
3980.468750	-42.794392
3981.445312	-42.988834
3982.421875	-43.601742
3983.398438	-43.721554
3984.375000	-43.957863
3985.351562	-43.498280
3986.328125	-44.016472
3987.304688	-42.828373
3988.281250	-42.852802
3989.257812	-42.646393
3990.234375	-43.665817
3991.210938	-45.247036
3992.187500	-42.754261
3993.164062	-42.417168
3994.140625	-43.647747
3995.117188	-43.677151
3996.093750	-43.105656
3997.070312	-43.310757
3998.046875	-42.920837
3999.023438	-43.472416
4000.000000	-43.562717
4000.976562	-42.794586
4001.953125	-44.153603
4002.929688	-43.942513
4003.906250	-43.774990
4004.882812	-42.385845
4005.859375	-43.203445
4006.835938	-43.940247
4007.812500	-44.127449
4008.789062	-42.140316
4009.765625	-42.619282
4010.742188	-44.059490
4011.718750	-42.969501
4012.695312	-42.937561
4013.671875	-43.552280
4014.648438	-43.495251
4015.625000	-43.082352
4016.601562	-42.375496
4017.578125	-43.077656
4018.554688	-43.382725
4019.531250	-42.973652
4020.507812	-42.739285
4021.484375	-42.642029
4022.460938	-42.920052
4023.437500	-43.649532
4024.414062	-44.527809
4025.390625	-43.467503
4026.367188	-43.374748
4027.343750	-42.860279
4028.320312	-43.037361
4029.296875	-43.134476
4030.273438	-43.210285
4031.250000	-43.798222
4032.226562	-43.504917
4033.203125	-42.723640
4034.179688	-43.042023
4035.156250	-43.108330
4036.132812	-43.279358
4037.109375	-43.044113
4038.085938	-42.395721
4039.062500	-42.650043
4040.039062	-43.225719
4041.015625	-42.932732
4041.992188	-43.698330
4042.968750	-43.120159
4043.945312	-44.113358
4044.921875	-43.246403
4045.898438	-43.730709
4046.875000	-43.312836
4047.851562	-43.308582
4048.828125	-43.555370
4049.804688	-43.408684
4050.781250	-43.318573
4051.757812	-43.570698
4052.734375	-43.714928
4053.710938	-42.691628
4054.687500	-43.422401
4055.664062	-43.180199
4056.640625	-43.372913
4057.617188	-41.872295
4058.593750	-42.186131
4059.570312	-43.826031
4060.546875	-43.486835
4061.523438	-42.248371
4062.500000	-42.576401
4063.476562	-42.581699
4064.453125	-42.807293
4065.429688	-42.074482
4066.406250	-43.076530
4067.382812	-42.922680
4068.359375	-42.503426
4069.335938	-42.464176
4070.312500	-42.654572
4071.289062	-42.491745
4072.265625	-42.818863
4073.242188	-42.859188
4074.218750	-42.286930
4075.195312	-42.948349
4076.171875	-42.600986
4077.148438	-42.506939
4078.125000	-42.996902
4079.101562	-42.744331
4080.078125	-42.978573
4081.054688	-42.700905
4082.031250	-42.774464
4083.007812	-43.703030
4083.984375	-43.234997
4084.960938	-43.043041
4085.937500	-42.505947
4086.914062	-42.951496
4087.890625	-41.884975
4088.867188	-41.979744
4089.843750	-43.513138
4090.820312	-42.624466
4091.796875	-42.432198
4092.773438	-42.043427
4093.750000	-41.857822
4094.726562	-43.230530
4095.703125	-42.918697
4096.679688	-42.189232
4097.656250	-43.185661
4098.632812	-44.031967
4099.609375	-43.509651
4100.585938	-42.929066
4101.562500	-42.527374
4102.539062	-43.309780
4103.515625	-43.076847
4104.492188	-42.052490
4105.468750	-42.936802
4106.445312	-43.867973
4107.421875	-42.185863
4108.398438	-43.018871
4109.375000	-42.985275
4110.351562	-43.646473
4111.328125	-44.120060
4112.304688	-43.323391
4113.281250	-43.524429
4114.257812	-43.757721
4115.234375	-42.871761
4116.210938	-43.307919
4117.187500	-43.394070
4118.164062	-43.981518
4119.140625	-43.191132
4120.117188	-43.228653
4121.093750	-43.995262
4122.070312	-43.152267
4123.046875	-42.312901
4124.023438	-42.447891
4125.000000	-42.479485
4125.976562	-42.210285
4126.953125	-44.199192
4127.929688	-43.881439
4128.906250	-43.251270
4129.882812	-42.804813
4130.859375	-42.288082
4131.835938	-43.763184
4132.812500	-43.848804
4133.789062	-42.504642
4134.765625	-43.513092
4135.742188	-42.932961
4136.718750	-43.857685
4137.695312	-42.979179
4138.671875	-43.109913
4139.648438	-43.709389
4140.625000	-43.516109
4141.601562	-42.888226
4142.578125	-43.841530
4143.554688	-42.849598
4144.531250	-43.696369
4145.507812	-43.560966
4146.484375	-43.063080
4147.460938	-43.539333
4148.437500	-43.189819
4149.414062	-43.650452
4150.390625	-44.731850
4151.367188	-43.740616
4152.343750	-44.291504
4153.320312	-43.584671
4154.296875	-43.842030
4155.273438	-43.864468
4156.250000	-44.409653
4157.226562	-44.498707
4158.203125	-44.684391
4159.179688	-43.679718
4160.156250	-44.037811
4161.132812	-43.779007
4162.109375	-44.107952
4163.085938	-44.038502
4164.062500	-43.785805
4165.039062	-44.681339
4166.015625	-43.573238
4166.992188	-42.845268
4167.968750	-43.038376
4168.945312	-43.437733
4169.921875	-43.505104
4170.898438	-43.718216
4171.875000	-44.116302
4172.851562	-43.591270
4173.828125	-42.671024
4174.804688	-43.780354
4175.781250	-43.714027
4176.757812	-42.963734
4177.734375	-43.069195
4178.710938	-43.463818
4179.687500	-43.634102
4180.664062	-42.278591
4181.640625	-43.443687
4182.617188	-43.221317
4183.593750	-42.944912
4184.570312	-43.961899
4185.546875	-41.912556
4186.523438	-42.871975
4187.500000	-41.686989
4188.476562	-42.928391
4189.453125	-42.928692
4190.429688	-40.885189
4191.406250	-41.036518
4192.382812	-41.139755
4193.359375	-40.830082
4194.335938	-43.259628
4195.312500	-42.965034
4196.289062	-41.723656
4197.265625	-42.175602
4198.242188	-40.681469
4199.218750	-41.236023
4200.195312	-40.560085
4201.171875	-40.423855
4202.148438	-42.757328
4203.125000	-42.235332
4204.101562	-41.749161
4205.078125	-42.396942
4206.054688	-41.621639
4207.031250	-41.591953
4208.007812	-41.739365
4208.984375	-41.138748
4209.960938	-42.033337
4210.937500	-41.076309
4211.914062	-41.462917
4212.890625	-42.717548
4213.867188	-42.578316
4214.843750	-42.022804
4215.820312	-41.196556
4216.796875	-41.693794
4217.773438	-41.655529
4218.750000	-40.753689
4219.726562	-40.510284
4220.703125	-42.234024
4221.679688	-41.791431
4222.656250	-41.203800
4223.632812	-40.921200
4224.609375	-41.485897
4225.585938	-42.026119
4226.562500	-40.628521
4227.539062	-39.910442
4228.515625	-42.410313
4229.492188	-40.882839
4230.468750	-41.752605
4231.445312	-41.878544
4232.421875	-41.520882
4233.398438	-40.782688
4234.375000	-42.361626
4235.351562	-40.998116
4236.328125	-41.799877
4237.304688	-41.862785
4238.281250	-43.228622
4239.257812	-41.470394
4240.234375	-40.754837
4241.210938	-41.775127
4242.187500	-42.936008
4243.164062	-42.466152
4244.140625	-41.839401
4245.117188	-42.785519
4246.093750	-42.149406
4247.070312	-40.752079
4248.046875	-42.623310
4249.023438	-41.990799
4250.000000	-42.020905
4250.976562	-43.502586
4251.953125	-42.690804
4252.929688	-42.133854
4253.906250	-42.563133
4254.882812	-42.304783
4255.859375	-43.125835
4256.835938	-41.792469
4257.812500	-42.168667
4258.789062	-42.177464
4259.765625	-43.199947
4260.742188	-42.302185
4261.718750	-43.192883
4262.695312	-43.141361
4263.671875	-42.592152
4264.648438	-41.828201
4265.625000	-42.031242
4266.601562	-41.606232
4267.578125	-43.261448
4268.554688	-42.650719
4269.531250	-42.942749
4270.507812	-43.025452
4271.484375	-43.588860
4272.460938	-42.798141
4273.437500	-43.129608
4274.414062	-42.415211
4275.390625	-42.276115
4276.367188	-41.962955
4277.343750	-42.802258
4278.320312	-43.075317
4279.296875	-43.482834
4280.273438	-42.895168
4281.250000	-42.587784
4282.226562	-42.519547
4283.203125	-42.021332
4284.179688	-43.290691
4285.156250	-43.498966
4286.132812	-44.735508
4287.109375	-43.310043
4288.085938	-42.363388
4289.062500	-42.547104
4290.039062	-42.511177
4291.015625	-41.532932
4291.992188	-42.770504
4292.968750	-44.025078
4293.945312	-44.036709
4294.921875	-42.773129
4295.898438	-43.445045
4296.875000	-43.358200
4297.851562	-43.186909
4298.828125	-42.032021
4299.804688	-43.739712
4300.781250	-44.239288
4301.757812	-43.350784
4302.734375	-42.757397
4303.710938	-43.475224
4304.687500	-43.617249
4305.664062	-42.305607
4306.640625	-42.908249
4307.617188	-43.526539
4308.593750	-43.411839
4309.570312	-43.328472
4310.546875	-43.255013
4311.523438	-43.373611
4312.500000	-43.936443
4313.476562	-42.436401
4314.453125	-43.282970
4315.429688	-43.002514
4316.406250	-43.780735
4317.382812	-43.152500
4318.359375	-42.120029
4319.335938	-44.068676
4320.312500	-44.102257
4321.289062	-42.943237
4322.265625	-43.452694
4323.242188	-43.507042
4324.218750	-43.185814
4325.195312	-42.716057
4326.171875	-43.207012
4327.148438	-43.543106
4328.125000	-44.118683
4329.101562	-42.756691
4330.078125	-43.667507
4331.054688	-44.255695
4332.031250	-43.968945
4333.007812	-42.860825
4333.984375	-42.425846
4334.960938	-43.470463
4335.937500	-43.816589
4336.914062	-43.138294
4337.890625	-44.185333
4338.867188	-43.788166
4339.843750	-43.687695
4340.820312	-42.939754
4341.796875	-43.220753
4342.773438	-43.195091
4343.750000	-43.412529
4344.726562	-43.080612
4345.703125	-44.167770
4346.679688	-44.484035
4347.656250	-43.311295
4348.632812	-42.742729
4349.609375	-43.553989
4350.585938	-43.640072
4351.562500	-43.633087
4352.539062	-44.271824
4353.515625	-44.918846
4354.492188	-44.365353
4355.468750	-43.946213
4356.445312	-42.758236
4357.421875	-43.149605
4358.398438	-43.168484
4359.375000	-44.068123
4360.351562	-44.195019
4361.328125	-45.859726
4362.304688	-44.977974
4363.281250	-43.715393
4364.257812	-43.420341
4365.234375	-43.223827
4366.210938	-44.021061
4367.187500	-43.646278
4368.164062	-43.868366
4369.140625	-44.426476
4370.117188	-44.335594
4371.093750	-44.490295
4372.070312	-44.104446
4373.046875	-44.267822
4374.023438	-43.734314
4375.000000	-43.316845
4375.976562	-44.262558
4376.953125	-44.683777
4377.929688	-44.757343
4378.906250	-44.695873
4379.882812	-44.611271
4380.859375	-44.298733
4381.835938	-43.737057
4382.812500	-44.055351
4383.789062	-44.574707
4384.765625	-45.169033
4385.742188	-44.946575
4386.718750	-44.805428
4387.695312	-44.383923
4388.671875	-44.177185
4389.648438	-43.942566
4390.625000	-43.745045
4391.601562	-44.341904
4392.578125	-44.360542
4393.554688	-44.935848
4394.531250	-44.122272
4395.507812	-43.432346
4396.484375	-44.131069
4397.460938	-43.180866
4398.437500	-43.201817
4399.414062	-44.188118
4400.390625	-44.870750
4401.367188	-44.136765
4402.343750	-43.276161
4403.320312	-42.907139
4404.296875	-44.161766
4405.273438	-43.364975
4406.250000	-43.554066
4407.226562	-44.283749
4408.203125	-44.471024
4409.179688	-44.336124
4410.156250	-44.358360
4411.132812	-42.170319
4412.109375	-43.263767
4413.085938	-43.508682
4414.062500	-42.803516
4415.039062	-43.047962
4416.015625	-44.573322
4416.992188	-45.697453
4417.968750	-45.088989
4418.945312	-43.740574
4419.921875	-43.063179
4420.898438	-43.596733
4421.875000	-43.664005
4422.851562	-43.213123
4423.828125	-44.413471
4424.804688	-44.251427
4425.781250	-43.923847
4426.757812	-43.003986
4427.734375	-42.198914
4428.710938	-43.446537
4429.687500	-44.271454
4430.664062	-44.148018
4431.640625	-43.895607
4432.617188	-43.202530
4433.593750	-43.832542
4434.570312	-43.070271
4435.546875	-42.161896
4436.523438	-43.293491
4437.500000	-44.936966
4438.476562	-43.668064
4439.453125	-42.256004
4440.429688	-42.392521
4441.406250	-44.051613
4442.382812	-43.692097
4443.359375	-42.822491
4444.335938	-44.949886
4445.312500	-43.174561
4446.289062	-42.514442
4447.265625	-42.531582
4448.242188	-43.140316
4449.218750	-43.941074
4450.195312	-42.575672
4451.171875	-42.100296
4452.148438	-42.677635
4453.125000	-42.790211
4454.101562	-43.801464
4455.078125	-42.956841
4456.054688	-42.152424
4457.031250	-43.051895
4458.007812	-42.863464
4458.984375	-42.102341
4459.960938	-42.005375
4460.937500	-42.168800
4461.914062	-43.324902
4462.890625	-41.307209
4463.867188	-40.916679
4464.843750	-42.949104
4465.820312	-43.508827
4466.796875	-42.742458
4467.773438	-42.131313
4468.750000	-42.520611
4469.726562	-42.844746
4470.703125	-41.451435
4471.679688	-41.347340
4472.656250	-42.013481
4473.632812	-43.326046
4474.609375	-42.994587
4475.585938	-42.948421
4476.562500	-41.780342
4477.539062	-42.060585
4478.515625	-42.646763
4479.492188	-41.001694
4480.468750	-41.258495
4481.445312	-43.943821
4482.421875	-42.072285
4483.398438	-41.403290
4484.375000	-41.881317
4485.351562	-41.583439
4486.328125	-42.751743
4487.304688	-41.024044
4488.281250	-42.445702
4489.257812	-44.087669
4490.234375	-42.627617
4491.210938	-41.936192
4492.187500	-42.202091
4493.164062	-43.030743
4494.140625	-41.614761
4495.117188	-40.633133
4496.093750	-41.305393
4497.070312	-43.459286
4498.046875	-42.779076
4499.023438	-41.972137
4500.000000	-42.467499
4500.976562	-42.005318
4501.953125	-42.101860
4502.929688	-42.325443
4503.906250	-42.800564
4504.882812	-42.862865
4505.859375	-42.992130
4506.835938	-43.937553
4507.812500	-43.617210
4508.789062	-43.132782
4509.765625	-43.507725
4510.742188	-42.929016
4511.718750	-44.439014
4512.695312	-43.785934
4513.671875	-43.979404
4514.648438	-43.503185
4515.625000	-43.951473
4516.601562	-43.991680
4517.578125	-43.377838
4518.554688	-44.503429
4519.531250	-44.441322
4520.507812	-43.485542
4521.484375	-43.885048
4522.460938	-43.622520
4523.437500	-43.221970
4524.414062	-43.425869
4525.390625	-43.864979
4526.367188	-43.841496
4527.343750	-44.413975
4528.320312	-42.843128
4529.296875	-44.235943
4530.273438	-43.916039
4531.250000	-43.872112
4532.226562	-43.173321
4533.203125	-44.141766
4534.179688	-44.504318
4535.156250	-45.357384
4536.132812	-45.984848
4537.109375	-44.971478
4538.085938	-45.879250
4539.062500	-44.639275
4540.039062	-45.203217
4541.015625	-44.729729
4541.992188	-44.950268
4542.968750	-45.840942
4543.945312	-45.882492
4544.921875	-46.459682
4545.898438	-45.958778
4546.875000	-44.413849
4547.851562	-45.153351
4548.828125	-43.556427
4549.804688	-44.655273
4550.781250	-46.210213
4551.757812	-44.613403
4552.734375	-44.553059
4553.710938	-44.760193
4554.687500	-45.628841
4555.664062	-44.677982
4556.640625	-44.437649
4557.617188	-44.256187
4558.593750	-45.840950
4559.570312	-46.088661
4560.546875	-45.337368
4561.523438	-45.609329
4562.500000	-44.893803
4563.476562	-44.996567
4564.453125	-44.972847
4565.429688	-45.294674
4566.406250	-46.133938
4567.382812	-45.855556
4568.359375	-44.615631
4569.335938	-45.787956
4570.312500	-45.824894
4571.289062	-45.783840
4572.265625	-46.086914
4573.242188	-45.988018
4574.218750	-46.635513
4575.195312	-45.769661
4576.171875	-44.910572
4577.148438	-45.615788
4578.125000	-45.937881
4579.101562	-46.482185
4580.078125	-47.088070
4581.054688	-47.641369
4582.031250	-46.001431
4583.007812	-46.010548
4583.984375	-45.522392
4584.960938	-46.818214
4585.937500	-46.694244
4586.914062	-47.488010
4587.890625	-47.486561
4588.867188	-47.991985
4589.843750	-47.434933
4590.820312	-46.220043
4591.796875	-46.788879
4592.773438	-46.828125
4593.750000	-46.527668
4594.726562	-47.896088
4595.703125	-47.502586
4596.679688	-47.595131
4597.656250	-48.057400
4598.632812	-47.291466
4599.609375	-47.289860
4600.585938	-47.464645
4601.562500	-46.907963
4602.539062	-47.932461
4603.515625	-47.693394
4604.492188	-47.709148
4605.468750	-47.532043
4606.445312	-47.783436
4607.421875	-48.163174
4608.398438	-47.191624
4609.375000	-47.224316
4610.351562	-46.599766
4611.328125	-48.082706
4612.304688	-49.023933
4613.281250	-48.457325
4614.257812	-48.039425
4615.234375	-47.834190
4616.210938	-47.252129
4617.187500	-47.929153
4618.164062	-48.416157
4619.140625	-48.776005
4620.117188	-48.725456
4621.093750	-48.966354
4622.070312	-48.223331
4623.046875	-48.401653
4624.023438	-48.039371
4625.000000	-47.823143
4625.976562	-48.221329
4626.953125	-48.064995
4627.929688	-49.250332
4628.906250	-48.132797
4629.882812	-47.844051
4630.859375	-48.108963
4631.835938	-47.528263
4632.812500	-49.023640
4633.789062	-47.899471
4634.765625	-48.758610
4635.742188	-48.726475
4636.718750	-48.870056
4637.695312	-48.443657
4638.671875	-48.530987
4639.648438	-48.093136
4640.625000	-48.472584
4641.601562	-48.139786
4642.578125	-48.694393
4643.554688	-48.685837
4644.531250	-49.095394
4645.507812	-48.874477
4646.484375	-49.054825
4647.460938	-48.563786
4648.437500	-49.169022
4649.414062	-48.120884
4650.390625	-48.575607
4651.367188	-48.419590
4652.343750	-49.635162
4653.320312	-49.665993
4654.296875	-48.793613
4655.273438	-48.483410
4656.250000	-49.210751
4657.226562	-48.644917
4658.203125	-48.657055
4659.179688	-48.126293
4660.156250	-48.139481
4661.132812	-48.895153
4662.109375	-49.107052
4663.085938	-48.470036
4664.062500	-49.533916
4665.039062	-48.560097
4666.015625	-48.477722
4666.992188	-48.718964
4667.968750	-48.518085
4668.945312	-49.012566
4669.921875	-49.478798
4670.898438	-48.755222
4671.875000	-48.330105
4672.851562	-49.759674
4673.828125	-47.469933
4674.804688	-49.364449
4675.781250	-48.992008
4676.757812	-47.548733
4677.734375	-48.896774
4678.710938	-48.464989
4679.687500	-48.519886
4680.664062	-49.050407
4681.640625	-49.395283
4682.617188	-48.564411
4683.593750	-49.543785
4684.570312	-48.189991
4685.546875	-48.299454
4686.523438	-47.962643
4687.500000	-49.033741
4688.476562	-48.055054
4689.453125	-49.531780
4690.429688	-49.375931
4691.406250	-49.048950
4692.382812	-48.027206
4693.359375	-49.442696
4694.335938	-49.163834
4695.312500	-50.314671
4696.289062	-49.511143
4697.265625	-49.486214
4698.242188	-49.993584
4699.218750	-48.552181
4700.195312	-49.074940
4701.171875	-50.739357
4702.148438	-49.911736
4703.125000	-48.361393
4704.101562	-49.520901
4705.078125	-48.007774
4706.054688	-48.533672
4707.031250	-48.991844
4708.007812	-49.040970
4708.984375	-49.632439
4709.960938	-48.226543
4710.937500	-48.635372
4711.914062	-49.451393
4712.890625	-48.358730
4713.867188	-49.518826
4714.843750	-49.362381
4715.820312	-50.121464
4716.796875	-48.631649
4717.773438	-48.711941
4718.750000	-49.524517
4719.726562	-49.558167
4720.703125	-49.365952
4721.679688	-48.648933
4722.656250	-49.391006
4723.632812	-49.701229
4724.609375	-49.334240
4725.585938	-48.609173
4726.562500	-48.891247
4727.539062	-49.590607
4728.515625	-48.973198
4729.492188	-48.929382
4730.468750	-49.839386
4731.445312	-49.493294
4732.421875	-49.588879
4733.398438	-48.859638
4734.375000	-48.678883
4735.351562	-49.710754
4736.328125	-49.579868
4737.304688	-49.286964
4738.281250	-49.704895
4739.257812	-49.487118
4740.234375	-50.081722
4741.210938	-49.572876
4742.187500	-48.498833
4743.164062	-48.007519
4744.140625	-49.401463
4745.117188	-49.680634
4746.093750	-49.939651
4747.070312	-49.917614
4748.046875	-49.233944
4749.023438	-49.196495
4750.000000	-49.224266
4750.976562	-48.743126
4751.953125	-49.284481
4752.929688	-49.378292
4753.906250	-50.159866
4754.882812	-49.458084
4755.859375	-49.020805
4756.835938	-49.093647
4757.812500	-49.900684
4758.789062	-49.409435
4759.765625	-49.702827
4760.742188	-50.159935
4761.718750	-49.571785
4762.695312	-49.611256
4763.671875	-49.460754
4764.648438	-49.549500
4765.625000	-49.178974
4766.601562	-48.719826
4767.578125	-49.835293
4768.554688	-49.759018
4769.531250	-49.705990
4770.507812	-49.472733
4771.484375	-50.138718
4772.460938	-49.769207
4773.437500	-49.914959
4774.414062	-49.323750
4775.390625	-49.217842
4776.367188	-49.542591
4777.343750	-49.806187
4778.320312	-49.018764
4779.296875	-49.150620
4780.273438	-49.359646
4781.250000	-48.573586
4782.226562	-49.340492
4783.203125	-50.095169
4784.179688	-49.455563
4785.156250	-49.888973
4786.132812	-49.034985
4787.109375	-50.125973
4788.085938	-49.462517
4789.062500	-49.064369
4790.039062	-49.831818
4791.015625	-49.400208
4791.992188	-49.366531
4792.968750	-49.831154
4793.945312	-49.970375
4794.921875	-49.894421
4795.898438	-49.834415
4796.875000	-50.353699
4797.851562	-49.378647
4798.828125	-49.640366
4799.804688	-49.160976
4800.781250	-49.838852
4801.757812	-50.159653
4802.734375	-50.701172
4803.710938	-49.702362
4804.687500	-49.385540
4805.664062	-49.173809
4806.640625	-48.707268
4807.617188	-49.436165
4808.593750	-49.647522
4809.570312	-49.598740
4810.546875	-49.891460
4811.523438	-49.349503
4812.500000	-49.885544
4813.476562	-49.456028
4814.453125	-49.263218
4815.429688	-50.092533
4816.406250	-49.122482
4817.382812	-49.741714
4818.359375	-49.127426
4819.335938	-49.538273
4820.312500	-49.945354
4821.289062	-49.335228
4822.265625	-48.708370
4823.242188	-49.713985
4824.218750	-50.816841
4825.195312	-50.425835
4826.171875	-49.596199
4827.148438	-49.376877
4828.125000	-49.370823
4829.101562	-48.612518
4830.078125	-48.835575
4831.054688	-49.829304
4832.031250	-50.288940
4833.007812	-49.012348
4833.984375	-48.970234
4834.960938	-49.584660
4835.937500	-49.348774
4836.914062	-49.437492
4837.890625	-48.952850
4838.867188	-49.489796
4839.843750	-49.589516
4840.820312	-49.911137
4841.796875	-48.620789
4842.773438	-49.351482
4843.750000	-49.471699
4844.726562	-49.151489
4845.703125	-48.591125
4846.679688	-49.283516
4847.656250	-49.021839
4848.632812	-50.022888
4849.609375	-49.669323
4850.585938	-49.002522
4851.562500	-49.947945
4852.539062	-49.139168
4853.515625	-48.742428
4854.492188	-49.756027
4855.468750	-49.343338
4856.445312	-48.926273
4857.421875	-49.678562
4858.398438	-49.134159
4859.375000	-49.088558
4860.351562	-49.497761
4861.328125	-49.096336
4862.304688	-49.193027
4863.281250	-49.050171
4864.257812	-48.955414
4865.234375	-48.997807
4866.210938	-49.810139
4867.187500	-49.146595
4868.164062	-49.102562
4869.140625	-48.647461
4870.117188	-49.065250
4871.093750	-48.992744
4872.070312	-49.238533
4873.046875	-49.750687
4874.023438	-49.583000
4875.000000	-50.160355
4875.976562	-49.166401
4876.953125	-49.085926
4877.929688	-49.412743
4878.906250	-49.846722
4879.882812	-49.786671
4880.859375	-49.321529
4881.835938	-48.727528
4882.812500	-49.546722
4883.789062	-49.390789
4884.765625	-49.783031
4885.742188	-49.099888
4886.718750	-49.877071
4887.695312	-49.641563
4888.671875	-49.634396
4889.648438	-49.398705
4890.625000	-49.925041
4891.601562	-49.040680
4892.578125	-49.624275
4893.554688	-49.653851
4894.531250	-49.020092
4895.507812	-49.212181
4896.484375	-49.930092
4897.460938	-49.352779
4898.437500	-49.056282
4899.414062	-50.086178
4900.390625	-49.142925
4901.367188	-48.754776
4902.343750	-49.523304
4903.320312	-49.557541
4904.296875	-48.792847
4905.273438	-49.508236
4906.250000	-49.599220
4907.226562	-49.648006
4908.203125	-49.260689
4909.179688	-48.613888
4910.156250	-48.948338
4911.132812	-49.908310
4912.109375	-49.040607
4913.085938	-49.455654
4914.062500	-49.503990
4915.039062	-49.551025
4916.015625	-48.893929
4916.992188	-49.181923
4917.968750	-49.776237
4918.945312	-49.575897
4919.921875	-50.292812
4920.898438	-49.776760
4921.875000	-48.852043
4922.851562	-50.496197
4923.828125	-49.547012
4924.804688	-49.573593
4925.781250	-49.657852
4926.757812	-49.395073
4927.734375	-49.418079
4928.710938	-50.382957
4929.687500	-50.139046
4930.664062	-49.576630
4931.640625	-49.323009
4932.617188	-49.358910
4933.593750	-50.602798
4934.570312	-49.975910
4935.546875	-49.921566
4936.523438	-49.025318
4937.500000	-49.022690
4938.476562	-49.218727
4939.453125	-49.576103
4940.429688	-49.315739
4941.406250	-49.317123
4942.382812	-50.189747
4943.359375	-49.234386
4944.335938	-49.552525
4945.312500	-49.722069
4946.289062	-49.624371
4947.265625	-49.383678
4948.242188	-49.168610
4949.218750	-49.978317
4950.195312	-49.398113
4951.171875	-49.019985
4952.148438	-48.719311
4953.125000	-49.351425
4954.101562	-49.220692
4955.078125	-49.719173
4956.054688	-49.720299
4957.031250	-50.101078
4958.007812	-49.585224
4958.984375	-50.084713
4959.960938	-49.478355
4960.937500	-49.438602
4961.914062	-49.602062
4962.890625	-49.271526
4963.867188	-49.072575
4964.843750	-49.305492
4965.820312	-49.805588
4966.796875	-49.731010
4967.773438	-49.485451
4968.750000	-50.294613
4969.726562	-49.855404
4970.703125	-50.244595
4971.679688	-49.230129
4972.656250	-49.536209
4973.632812	-49.166073
4974.609375	-50.171066
4975.585938	-49.229855
4976.562500	-49.831100
4977.539062	-49.141460
4978.515625	-49.079742
4979.492188	-49.251717
4980.468750	-50.143078
4981.445312	-50.273891
4982.421875	-50.138615
4983.398438	-49.389145
4984.375000	-49.967030
4985.351562	-49.404469
4986.328125	-49.103107
4987.304688	-50.146458
4988.281250	-49.246189
4989.257812	-50.207359
4990.234375	-50.568916
4991.210938	-49.281887
4992.187500	-48.660858
4993.164062	-50.297466
4994.140625	-49.304817
4995.117188	-49.053356
4996.093750	-48.906509
4997.070312	-49.302586
4998.046875	-49.268333
4999.023438	-49.883713
5000.000000	-49.583515
5000.976562	-49.318920
5001.953125	-49.806721
5002.929688	-49.436375
5003.906250	-49.340775
5004.882812	-49.448589
5005.859375	-49.134060
5006.835938	-49.161507
5007.812500	-50.758987
5008.789062	-49.906830
5009.765625	-49.392380
5010.742188	-49.503258
5011.718750	-49.462227
5012.695312	-49.142937
5013.671875	-49.139439
5014.648438	-49.380215
5015.625000	-49.791420
5016.601562	-50.028297
5017.578125	-49.042122
5018.554688	-48.976650
5019.531250	-48.734924
5020.507812	-49.944031
5021.484375	-50.156792
5022.460938	-49.673820
5023.437500	-48.996605
5024.414062	-49.296810
5025.390625	-49.131622
5026.367188	-49.563869
5027.343750	-50.030434
5028.320312	-49.446739
5029.296875	-49.700871
5030.273438	-48.829098
5031.250000	-49.865131
5032.226562	-49.454765
5033.203125	-49.246922
5034.179688	-49.769768
5035.156250	-49.741554
5036.132812	-49.565250
5037.109375	-49.597309
5038.085938	-49.423363
5039.062500	-49.104500
5040.039062	-48.939247
5041.015625	-50.314945
5041.992188	-49.422440
5042.968750	-49.532532
5043.945312	-49.855228
5044.921875	-49.754616
5045.898438	-49.800716
5046.875000	-49.920174
5047.851562	-49.255253
5048.828125	-49.981052
5049.804688	-50.404945
5050.781250	-50.380859
5051.757812	-49.280949
5052.734375	-48.323143
5053.710938	-49.077034
5054.687500	-49.944908
5055.664062	-49.780647
5056.640625	-49.251778
5057.617188	-49.832901
5058.593750	-49.379002
5059.570312	-48.971764
5060.546875	-48.988621
5061.523438	-49.007374
5062.500000	-49.779751
5063.476562	-49.412659
5064.453125	-48.623528
5065.429688	-48.752155
5066.406250	-49.728745
5067.382812	-49.362545
5068.359375	-48.750988
5069.335938	-50.525017
5070.312500	-50.497574
5071.289062	-49.361897
5072.265625	-49.066914
5073.242188	-49.213371
5074.218750	-49.207836
5075.195312	-48.581043
5076.171875	-49.153320
5077.148438	-49.280197
5078.125000	-49.053143
5079.101562	-48.918003
5080.078125	-48.479145
5081.054688	-48.097950
5082.031250	-49.388821
5083.007812	-48.146465
5083.984375	-48.444042
5084.960938	-48.835575
5085.937500	-48.560890
5086.914062	-49.478287
5087.890625	-49.647858
5088.867188	-48.852802
5089.843750	-49.683292
5090.820312	-49.009396
5091.796875	-48.896065
5092.773438	-49.617668
5093.750000	-49.291485
5094.726562	-48.527515
5095.703125	-48.128727
5096.679688	-48.786919
5097.656250	-48.904167
5098.632812	-48.294403
5099.609375	-48.984173
5100.585938	-48.857719
5101.562500	-48.572926
5102.539062	-48.231827
5103.515625	-48.749912
5104.492188	-48.898785
5105.468750	-48.196594
5106.445312	-47.706760
5107.421875	-48.673759
5108.398438	-49.407539
5109.375000	-48.669128
5110.351562	-48.480965
5111.328125	-48.473808
5112.304688	-48.282860
5113.281250	-47.280224
5114.257812	-48.226452
5115.234375	-48.103870
5116.210938	-46.327213
5117.187500	-47.622234
5118.164062	-48.405640
5119.140625	-48.208946
5120.117188	-47.538120
5121.093750	-47.928596
5122.070312	-47.597420
5123.046875	-47.302349
5124.023438	-47.467133
5125.000000	-47.796227
5125.976562	-48.294582
5126.953125	-47.754822
5127.929688	-47.367931
5128.906250	-47.436012
5129.882812	-47.868752
5130.859375	-47.476826
5131.835938	-46.419273
5132.812500	-48.083752
5133.789062	-46.589367
5134.765625	-47.180733
5135.742188	-46.884384
5136.718750	-47.235569
5137.695312	-48.261169
5138.671875	-47.958176
5139.648438	-47.308243
5140.625000	-48.297325
5141.601562	-47.029732
5142.578125	-47.257889
5143.554688	-47.423813
5144.531250	-47.527737
5145.507812	-46.869209
5146.484375	-46.110767
5147.460938	-47.337269
5148.437500	-46.299465
5149.414062	-47.384171
5150.390625	-45.917988
5151.367188	-46.148949
5152.343750	-47.216965
5153.320312	-46.439735
5154.296875	-45.759277
5155.273438	-47.086971
5156.250000	-46.859009
5157.226562	-46.631344
5158.203125	-46.207924
5159.179688	-46.514858
5160.156250	-47.853157
5161.132812	-46.764095
5162.109375	-47.701900
5163.085938	-47.613201
5164.062500	-47.007530
5165.039062	-47.260738
5166.015625	-46.964310
5166.992188	-46.636086
5167.968750	-45.302830
5168.945312	-46.189705
5169.921875	-45.760445
5170.898438	-46.610733
5171.875000	-45.977642
5172.851562	-47.008785
5173.828125	-46.125423
5174.804688	-45.528481
5175.781250	-46.046993
5176.757812	-45.598808
5177.734375	-46.925781
5178.710938	-46.352253
5179.687500	-46.626328
5180.664062	-47.490910
5181.640625	-45.268974
5182.617188	-45.347385
5183.593750	-45.961380
5184.570312	-47.255939
5185.546875	-47.509445
5186.523438	-46.858715
5187.500000	-47.091431
5188.476562	-46.667664
5189.453125	-45.441212
5190.429688	-46.017273
5191.406250	-46.431938
5192.382812	-46.222672
5193.359375	-45.979805
5194.335938	-46.758430
5195.312500	-47.020733
5196.289062	-45.989292
5197.265625	-47.044659
5198.242188	-47.032616
5199.218750	-47.252590
5200.195312	-46.364445
5201.171875	-45.952942
5202.148438	-46.577332
5203.125000	-45.396160
5204.101562	-45.897438
5205.078125	-45.595680
5206.054688	-46.899250
5207.031250	-46.333157
5208.007812	-45.816948
5208.984375	-46.151691
5209.960938	-46.901005
5210.937500	-45.609577
5211.914062	-45.309105
5212.890625	-46.748039
5213.867188	-46.960598
5214.843750	-47.421272
5215.820312	-46.358231
5216.796875	-46.238327
5217.773438	-46.603390
5218.750000	-47.136505
5219.726562	-46.567829
5220.703125	-46.707489
5221.679688	-47.041161
5222.656250	-46.380398
5223.632812	-46.188068
5224.609375	-45.963413
5225.585938	-46.852535
5226.562500	-46.154404
5227.539062	-45.689144
5228.515625	-45.933498
5229.492188	-45.355904
5230.468750	-45.688377
5231.445312	-46.332664
5232.421875	-46.204922
5233.398438	-45.890347
5234.375000	-46.410194
5235.351562	-45.471409
5236.328125	-46.056282
5237.304688	-46.303627
5238.281250	-45.723660
5239.257812	-45.424263
5240.234375	-46.212696
5241.210938	-45.431576
5242.187500	-45.651543
5243.164062	-45.162518
5244.140625	-46.479710
5245.117188	-45.833263
5246.093750	-46.136192
5247.070312	-45.227875
5248.046875	-45.542683
5249.023438	-45.463726
5250.000000	-44.509983
5250.976562	-43.876736
5251.953125	-45.535675
5252.929688	-45.423260
5253.906250	-44.789108
5254.882812	-44.240368
5255.859375	-45.805130
5256.835938	-45.023182
5257.812500	-44.543003
5258.789062	-44.315178
5259.765625	-45.852016
5260.742188	-44.941456
5261.718750	-44.077736
5262.695312	-44.117599
5263.671875	-45.816990
5264.648438	-44.212505
5265.625000	-43.806305
5266.601562	-45.387482
5267.578125	-45.669945
5268.554688	-45.591179
5269.531250	-44.549458
5270.507812	-44.644096
5271.484375	-44.081852
5272.460938	-44.239861
5273.437500	-43.976543
5274.414062	-45.141552
5275.390625	-45.061039
5276.367188	-44.508873
5277.343750	-44.598778
5278.320312	-44.367516
5279.296875	-44.835709
5280.273438	-44.458103
5281.250000	-44.994148
5282.226562	-43.912552
5283.203125	-44.157238
5284.179688	-43.199280
5285.156250	-44.948277
5286.132812	-44.828415
5287.109375	-44.340168
5288.085938	-43.845940
5289.062500	-44.976513
5290.039062	-43.076710
5291.015625	-43.514103
5291.992188	-43.770344
5292.968750	-43.792366
5293.945312	-43.506985
5294.921875	-43.024612
5295.898438	-44.227245
5296.875000	-44.102909
5297.851562	-44.035690
5298.828125	-44.202835
5299.804688	-44.865356
5300.781250	-43.365791
5301.757812	-44.445290
5302.734375	-44.252296
5303.710938	-43.484520
5304.687500	-44.198341
5305.664062	-44.102531
5306.640625	-44.019428
5307.617188	-44.091053
5308.593750	-44.471424
5309.570312	-44.288574
5310.546875	-44.979027
5311.523438	-44.276321
5312.500000	-44.422977
5313.476562	-43.983639
5314.453125	-44.595036
5315.429688	-44.535328
5316.406250	-45.135136
5317.382812	-43.800434
5318.359375	-43.417351
5319.335938	-43.877277
5320.312500	-43.733288
5321.289062	-43.545479
5322.265625	-44.623623
5323.242188	-44.620106
5324.218750	-44.853123
5325.195312	-43.826042
5326.171875	-43.253128
5327.148438	-44.612267
5328.125000	-44.340836
5329.101562	-44.865231
5330.078125	-44.847000
5331.054688	-44.738640
5332.031250	-43.348560
5333.007812	-43.692612
5333.984375	-43.599476
5334.960938	-43.690487
5335.937500	-44.025219
5336.914062	-43.931164
5337.890625	-44.583096
5338.867188	-45.359360
5339.843750	-44.684174
5340.820312	-43.978317
5341.796875	-43.504986
5342.773438	-44.365070
5343.750000	-44.804153
5344.726562	-44.279919
5345.703125	-43.828922
5346.679688	-43.414505
5347.656250	-44.000999
5348.632812	-43.312675
5349.609375	-43.628006
5350.585938	-44.728954
5351.562500	-45.222008
5352.539062	-44.526573
5353.515625	-44.219944
5354.492188	-44.038292
5355.468750	-45.263039
5356.445312	-44.901669
5357.421875	-43.879738
5358.398438	-43.960281
5359.375000	-46.027126
5360.351562	-44.367546
5361.328125	-44.285191
5362.304688	-44.396744
5363.281250	-44.227253
5364.257812	-44.494362
5365.234375	-45.045410
5366.210938	-45.697533
5367.187500	-44.917595
5368.164062	-45.106621
5369.140625	-45.323299
5370.117188	-44.553177
5371.093750	-43.674400
5372.070312	-45.077950
5373.046875	-45.158375
5374.023438	-44.265789
5375.000000	-44.490139
5375.976562	-44.363556
5376.953125	-44.313110
5377.929688	-45.122986
5378.906250	-43.688305
5379.882812	-44.691559
5380.859375	-44.208572
5381.835938	-44.838341
5382.812500	-44.090912
5383.789062	-45.029713
5384.765625	-45.204304
5385.742188	-46.148685
5386.718750	-45.736732
5387.695312	-45.393307
5388.671875	-43.855659
5389.648438	-44.555912
5390.625000	-44.969044
5391.601562	-44.756729
5392.578125	-45.182270
5393.554688	-44.779892
5394.531250	-44.708080
5395.507812	-44.487064
5396.484375	-45.030582
5397.460938	-45.644108
5398.437500	-44.992619
5399.414062	-45.499184
5400.390625	-45.104961
5401.367188	-44.471497
5402.343750	-45.584705
5403.320312	-44.619457
5404.296875	-44.275669
5405.273438	-44.818104
5406.250000	-44.485012
5407.226562	-45.191601
5408.203125	-45.142719
5409.179688	-44.293510
5410.156250	-44.838959
5411.132812	-45.262016
5412.109375	-45.176075
5413.085938	-45.868855
5414.062500	-44.805363
5415.039062	-45.222340
5416.015625	-44.639610
5416.992188	-44.593067
5417.968750	-45.644539
5418.945312	-45.479301
5419.921875	-45.205589
5420.898438	-45.014942
5421.875000	-44.823452
5422.851562	-44.762634
5423.828125	-43.623482
5424.804688	-44.380917
5425.781250	-45.793354
5426.757812	-45.202908
5427.734375	-44.874748
5428.710938	-45.820599
5429.687500	-46.564442
5430.664062	-44.563332
5431.640625	-46.966137
5432.617188	-45.939339
5433.593750	-45.271336
5434.570312	-45.347439
5435.546875	-45.945446
5436.523438	-45.609623
5437.500000	-43.586723
5438.476562	-44.642002
5439.453125	-43.882759
5440.429688	-43.303867
5441.406250	-45.165440
5442.382812	-44.827652
5443.359375	-44.616447
5444.335938	-44.986778
5445.312500	-44.585407
5446.289062	-45.011517
5447.265625	-45.012115
5448.242188	-44.849186
5449.218750	-45.715443
5450.195312	-45.199711
5451.171875	-44.692387
5452.148438	-44.836136
5453.125000	-45.698730
5454.101562	-45.307583
5455.078125	-45.529285
5456.054688	-45.959885
5457.031250	-44.955734
5458.007812	-45.725639
5458.984375	-45.483234
5459.960938	-45.770561
5460.937500	-44.587833
5461.914062	-45.300507
5462.890625	-44.996826
5463.867188	-44.616066
5464.843750	-44.493702
5465.820312	-45.431984
5466.796875	-44.388332
5467.773438	-44.489388
5468.750000	-45.199570
5469.726562	-44.661812
5470.703125	-45.263477
5471.679688	-45.019619
5472.656250	-43.537968
5473.632812	-43.754799
5474.609375	-44.650280
5475.585938	-45.296928
5476.562500	-45.690605
5477.539062	-44.877411
5478.515625	-44.612118
5479.492188	-44.845505
5480.468750	-45.301388
5481.445312	-46.301910
5482.421875	-45.639519
5483.398438	-44.478363
5484.375000	-46.127838
5485.351562	-46.268867
5486.328125	-45.524364
5487.304688	-45.121391
5488.281250	-45.199978
5489.257812	-46.080063
5490.234375	-45.606075
5491.210938	-44.562416
5492.187500	-45.557251
5493.164062	-44.865768
5494.140625	-44.756035
5495.117188	-45.159054
5496.093750	-46.042778
5497.070312	-45.023872
5498.046875	-44.706806
5499.023438	-44.649200
5500.000000	-43.995514
5500.976562	-44.305511
5501.953125	-45.501701
5502.929688	-44.954704
5503.906250	-45.530457
5504.882812	-46.580601
5505.859375	-45.106953
5506.835938	-45.278332
5507.812500	-45.128517
5508.789062	-44.159454
5509.765625	-45.373672
5510.742188	-45.204369
5511.718750	-44.968796
5512.695312	-45.836029
5513.671875	-45.789902
5514.648438	-46.142994
5515.625000	-45.104317
5516.601562	-45.605198
5517.578125	-45.692513
5518.554688	-46.148251
5519.531250	-45.643467
5520.507812	-44.903133
5521.484375	-44.889847
5522.460938	-44.779598
5523.437500	-44.812626
5524.414062	-45.020786
5525.390625	-44.873421
5526.367188	-45.914719
5527.343750	-45.725208
5528.320312	-44.937881
5529.296875	-45.795361
5530.273438	-44.880356
5531.250000	-45.276474
5532.226562	-45.469887
5533.203125	-44.476334
5534.179688	-45.366608
5535.156250	-45.850311
5536.132812	-46.028980
5537.109375	-45.563435
5538.085938	-45.021740
5539.062500	-45.319534
5540.039062	-44.659500
5541.015625	-45.630508
5541.992188	-44.975338
5542.968750	-44.980770
5543.945312	-46.313000
5544.921875	-46.260361
5545.898438	-46.320168
5546.875000	-45.692726
5547.851562	-45.969921
5548.828125	-46.766335
5549.804688	-45.529968
5550.781250	-45.604683
5551.757812	-44.985161
5552.734375	-45.875565
5553.710938	-45.202095
5554.687500	-45.547096
5555.664062	-45.654861
5556.640625	-46.215038
5557.617188	-45.814945
5558.593750	-45.883133
5559.570312	-45.260986
5560.546875	-46.117371
5561.523438	-45.542919
5562.500000	-46.113003
5563.476562	-45.289043
5564.453125	-46.478058
5565.429688	-46.395630
5566.406250	-45.266361
5567.382812	-44.598400
5568.359375	-45.646553
5569.335938	-45.952744
5570.312500	-46.546047
5571.289062	-45.808231
5572.265625	-45.444443
5573.242188	-46.157249
5574.218750	-45.355011
5575.195312	-45.149437
5576.171875	-45.347427
5577.148438	-45.880516
5578.125000	-46.149975
5579.101562	-46.299038
5580.078125	-45.332005
5581.054688	-44.919254
5582.031250	-46.227818
5583.007812	-46.685070
5583.984375	-46.874809
5584.960938	-47.322399
5585.937500	-46.359741
5586.914062	-46.433704
5587.890625	-45.146030
5588.867188	-45.798775
5589.843750	-45.892216
5590.820312	-46.613754
5591.796875	-45.917366
5592.773438	-46.085999
5593.750000	-46.006084
5594.726562	-45.858585
5595.703125	-46.925488
5596.679688	-46.180325
5597.656250	-46.335583
5598.632812	-46.638161
5599.609375	-45.211842
5600.585938	-45.508068
5601.562500	-45.216972
5602.539062	-46.320717
5603.515625	-46.973862
5604.492188	-46.293190
5605.468750	-46.369225
5606.445312	-46.884686
5607.421875	-46.218281
5608.398438	-46.791817
5609.375000	-47.563942
5610.351562	-46.849075
5611.328125	-45.629585
5612.304688	-46.569096
5613.281250	-46.450294
5614.257812	-46.325527
5615.234375	-46.265007
5616.210938	-45.936100
5617.187500	-45.962772
5618.164062	-46.371517
5619.140625	-45.773384
5620.117188	-45.924904
5621.093750	-46.437313
5622.070312	-46.540993
5623.046875	-45.197128
5624.023438	-45.483635
5625.000000	-45.932613
5625.976562	-46.301094
5626.953125	-45.219994
5627.929688	-45.861458
5628.906250	-47.253017
5629.882812	-46.941612
5630.859375	-45.395607
5631.835938	-45.792309
5632.812500	-47.226353
5633.789062	-46.691299
5634.765625	-45.779179
5635.742188	-46.248478
5636.718750	-46.244926
5637.695312	-47.030754
5638.671875	-47.070038
5639.648438	-47.296394
5640.625000	-46.893280
5641.601562	-46.256962
5642.578125	-45.942104
5643.554688	-46.803005
5644.531250	-47.196056
5645.507812	-47.164253
5646.484375	-46.726467
5647.460938	-46.993061
5648.437500	-46.007439
5649.414062	-46.836437
5650.390625	-46.965950
5651.367188	-46.979507
5652.343750	-46.038681
5653.320312	-45.959682
5654.296875	-45.144028
5655.273438	-45.445343
5656.250000	-45.753735
5657.226562	-46.288528
5658.203125	-46.168098
5659.179688	-45.866623
5660.156250	-46.528065
5661.132812	-47.034149
5662.109375	-45.987972
5663.085938	-46.676193
5664.062500	-46.620979
5665.039062	-46.901482
5666.015625	-46.436569
5666.992188	-46.259830
5667.968750	-45.909447
5668.945312	-46.678200
5669.921875	-47.499844
5670.898438	-47.443909
5671.875000	-47.632271
5672.851562	-46.713173
5673.828125	-46.825256
5674.804688	-46.868664
5675.781250	-46.971123
5676.757812	-46.763550
5677.734375	-46.428921
5678.710938	-46.851116
5679.687500	-47.552105
5680.664062	-46.794151
5681.640625	-47.537075
5682.617188	-46.575706
5683.593750	-47.128166
5684.570312	-46.196026
5685.546875	-46.254509
5686.523438	-46.774113
5687.500000	-47.831787
5688.476562	-46.786938
5689.453125	-46.424595
5690.429688	-45.367142
5691.406250	-46.505829
5692.382812	-46.668015
5693.359375	-46.937363
5694.335938	-46.965218
5695.312500	-47.646168
5696.289062	-47.865089
5697.265625	-47.163956
5698.242188	-47.203411
5699.218750	-47.362026
5700.195312	-47.092365
5701.171875	-47.528347
5702.148438	-46.760883
5703.125000	-46.772682
5704.101562	-47.282818
5705.078125	-47.248444
5706.054688	-46.835144
5707.031250	-46.494549
5708.007812	-46.781395
5708.984375	-47.504780
5709.960938	-47.481319
5710.937500	-47.602032
5711.914062	-46.946236
5712.890625	-47.126408
5713.867188	-47.547390
5714.843750	-47.294842
5715.820312	-47.102535
5716.796875	-46.413086
5717.773438	-47.012962
5718.750000	-47.620255
5719.726562	-47.190807
5720.703125	-46.923878
5721.679688	-47.340664
5722.656250	-47.101498
5723.632812	-47.884216
5724.609375	-46.951069
5725.585938	-47.093899
5726.562500	-47.744480
5727.539062	-47.510460
5728.515625	-47.879547
5729.492188	-47.412571
5730.468750	-47.789818
5731.445312	-47.704666
5732.421875	-47.887135
5733.398438	-48.085529
5734.375000	-47.906063
5735.351562	-47.009987
5736.328125	-47.332539
5737.304688	-48.222500
5738.281250	-46.931240
5739.257812	-47.230091
5740.234375	-47.911694
5741.210938	-48.844231
5742.187500	-47.651272
5743.164062	-48.091396
5744.140625	-48.162827
5745.117188	-47.917473
5746.093750	-47.733650
5747.070312	-47.387112
5748.046875	-46.737228
5749.023438	-48.046917
5750.000000	-47.702000
5750.976562	-48.366051
5751.953125	-47.678425
5752.929688	-47.739609
5753.906250	-48.126438
5754.882812	-48.611244
5755.859375	-48.810574
5756.835938	-48.350082
5757.812500	-47.655746
5758.789062	-47.451851
5759.765625	-47.601318
5760.742188	-48.022995
5761.718750	-48.792194
5762.695312	-47.990505
5763.671875	-48.406509
5764.648438	-47.893761
5765.625000	-47.910168
5766.601562	-48.359928
5767.578125	-48.449184
5768.554688	-48.150864
5769.531250	-48.480690
5770.507812	-48.119812
5771.484375	-48.559750
5772.460938	-49.008339
5773.437500	-48.339642
5774.414062	-48.747608
5775.390625	-48.571815
5776.367188	-49.227345
5777.343750	-48.437412
5778.320312	-48.315800
5779.296875	-48.968216
5780.273438	-48.169537
5781.250000	-49.121506
5782.226562	-48.332195
5783.203125	-48.332355
5784.179688	-47.743023
5785.156250	-48.539307
5786.132812	-48.634277
5787.109375	-48.590141
5788.085938	-48.309921
5789.062500	-48.503624
5790.039062	-48.402550
5791.015625	-48.495789
5791.992188	-48.789665
5792.968750	-48.911987
5793.945312	-48.683346
5794.921875	-48.449608
5795.898438	-48.147583
5796.875000	-49.222946
5797.851562	-48.907684
5798.828125	-48.765873
5799.804688	-48.594978
5800.781250	-48.239895
5801.757812	-48.051365
5802.734375	-48.715797
5803.710938	-48.706642
5804.687500	-49.011623
5805.664062	-48.513042
5806.640625	-48.481403
5807.617188	-48.541252
5808.593750	-48.700550
5809.570312	-48.115280
5810.546875	-48.523521
5811.523438	-49.015354
5812.500000	-48.621597
5813.476562	-48.861008
5814.453125	-49.017948
5815.429688	-48.132153
5816.406250	-48.585823
5817.382812	-48.379387
5818.359375	-47.882278
5819.335938	-48.923214
5820.312500	-49.244785
5821.289062	-48.988522
5822.265625	-48.753929
5823.242188	-49.165421
5824.218750	-49.227253
5825.195312	-48.941967
5826.171875	-49.376816
5827.148438	-48.165573
5828.125000	-49.015240
5829.101562	-48.774830
5830.078125	-48.301338
5831.054688	-48.258923
5832.031250	-48.684570
5833.007812	-48.432739
5833.984375	-48.683151
5834.960938	-49.533794
5835.937500	-49.254391
5836.914062	-48.245998
5837.890625	-49.268589
5838.867188	-49.148689
5839.843750	-49.241257
5840.820312	-48.174759
5841.796875	-48.517284
5842.773438	-49.432575
5843.750000	-48.906860
5844.726562	-49.014915
5845.703125	-48.532017
5846.679688	-48.504166
5847.656250	-48.571983
5848.632812	-48.867786
5849.609375	-48.915272
5850.585938	-48.539379
5851.562500	-48.775066
5852.539062	-48.566265
5853.515625	-49.609467
5854.492188	-49.308437
5855.468750	-48.743736
5856.445312	-48.336559
5857.421875	-48.569130
5858.398438	-48.733788
5859.375000	-48.598606
5860.351562	-48.998966
5861.328125	-48.792175
5862.304688	-48.124931
5863.281250	-48.267738
5864.257812	-48.528770
5865.234375	-48.780685
5866.210938	-48.295826
5867.187500	-48.392166
5868.164062	-48.179783
5869.140625	-49.115406
5870.117188	-48.477325
5871.093750	-48.985294
5872.070312	-49.113354
5873.046875	-49.380653
5874.023438	-48.708782
5875.000000	-47.815548
5875.976562	-48.294403
5876.953125	-49.833740
5877.929688	-49.804474
5878.906250	-49.183243
5879.882812	-48.715420
5880.859375	-48.978336
5881.835938	-48.036957
5882.812500	-48.126213
5883.789062	-49.163586
5884.765625	-48.173424
5885.742188	-48.867805
5886.718750	-48.614578
5887.695312	-48.907555
5888.671875	-48.403515
5889.648438	-48.118656
5890.625000	-48.429035
5891.601562	-48.298267
5892.578125	-48.683270
5893.554688	-47.777752
5894.531250	-49.072147
5895.507812	-49.396641
5896.484375	-49.102081
5897.460938	-48.979668
5898.437500	-48.610332
5899.414062	-48.817791
5900.390625	-49.012741
5901.367188	-48.640572
5902.343750	-48.653370
5903.320312	-48.823326
5904.296875	-48.713963
5905.273438	-48.752407
5906.250000	-48.798943
5907.226562	-48.806889
5908.203125	-49.918617
5909.179688	-49.040070
5910.156250	-48.980038
5911.132812	-48.672401
5912.109375	-49.078365
5913.085938	-48.637424
5914.062500	-48.579235
5915.039062	-48.226151
5916.015625	-49.260178
5916.992188	-48.540108
5917.968750	-48.670719
5918.945312	-48.767750
5919.921875	-48.556721
5920.898438	-48.680359
5921.875000	-47.935833
5922.851562	-48.094017
5923.828125	-49.089306
5924.804688	-49.360317
5925.781250	-48.636364
5926.757812	-48.693180
5927.734375	-48.781612
5928.710938	-48.939232
5929.687500	-48.423042
5930.664062	-48.517982
5931.640625	-48.861557
5932.617188	-48.412159
5933.593750	-48.235065
5934.570312	-49.480415
5935.546875	-48.843216
5936.523438	-47.654518
5937.500000	-48.465767
5938.476562	-49.272724
5939.453125	-49.067924
5940.429688	-48.639561
5941.406250	-49.419052
5942.382812	-48.672680
5943.359375	-49.283184
5944.335938	-49.217300
5945.312500	-48.935303
5946.289062	-48.654045
5947.265625	-49.404678
5948.242188	-48.613155
5949.218750	-48.977589
5950.195312	-49.412685
5951.171875	-49.015129
5952.148438	-48.506641
5953.125000	-48.004936
5954.101562	-49.186958
5955.078125	-49.325218
5956.054688	-49.790310
5957.031250	-48.748222
5958.007812	-49.057201
5958.984375	-49.580090
5959.960938	-49.531082
5960.937500	-48.707741
5961.914062	-49.262356
5962.890625	-49.432430
5963.867188	-49.137497
5964.843750	-49.375774
5965.820312	-48.946678
5966.796875	-49.843811
5967.773438	-49.517342
5968.750000	-49.456738
5969.726562	-48.957157
5970.703125	-48.961395
5971.679688	-48.181664
5972.656250	-48.410179
5973.632812	-48.300903
5974.609375	-48.946472
5975.585938	-49.012226
5976.562500	-48.690807
5977.539062	-48.395355
5978.515625	-48.396969
5979.492188	-49.168175
5980.468750	-49.866161
5981.445312	-49.068348
5982.421875	-48.258183
5983.398438	-49.293621
5984.375000	-49.057827
5985.351562	-48.950897
5986.328125	-48.688515
5987.304688	-49.071766
5988.281250	-49.345230
5989.257812	-49.216015
5990.234375	-49.166481
5991.210938	-49.786152
5992.187500	-49.685913
5993.164062	-49.621220
5994.140625	-48.632477
5995.117188	-49.568638
5996.093750	-49.680946
5997.070312	-48.721504
5998.046875	-49.395363
5999.023438	-49.832321
6000.000000	-48.543617
6000.976562	-48.214165
6001.953125	-49.017479
6002.929688	-48.718887
6003.906250	-49.012161
6004.882812	-49.585194
6005.859375	-48.924244
6006.835938	-48.955524
6007.812500	-49.225357
6008.789062	-49.201797
6009.765625	-50.294903
6010.742188	-49.642853
6011.718750	-49.433201
6012.695312	-49.405247
6013.671875	-48.910656
6014.648438	-48.738861
6015.625000	-49.155216
6016.601562	-49.718010
6017.578125	-48.937302
6018.554688	-48.456120
6019.531250	-49.867382
6020.507812	-49.497417
6021.484375	-49.110996
6022.460938	-48.688953
6023.437500	-48.931122
6024.414062	-49.764946
6025.390625	-49.184353
6026.367188	-49.638809
6027.343750	-49.500320
6028.320312	-49.240936
6029.296875	-49.413261
6030.273438	-49.467384
6031.250000	-50.259834
6032.226562	-49.988514
6033.203125	-49.266335
6034.179688	-49.257271
6035.156250	-48.967194
6036.132812	-49.013153
6037.109375	-48.857368
6038.085938	-49.035770
6039.062500	-49.291565
6040.039062	-49.710007
6041.015625	-49.888958
6041.992188	-49.541313
6042.968750	-50.534290
6043.945312	-50.256962
6044.921875	-48.623524
6045.898438	-49.493668
6046.875000	-49.549648
6047.851562	-49.438606
6048.828125	-49.630730
6049.804688	-48.357368
6050.781250	-49.128689
6051.757812	-49.289162
6052.734375	-49.099876
6053.710938	-48.763588
6054.687500	-49.349857
6055.664062	-48.600372
6056.640625	-49.622379
6057.617188	-49.694668
6058.593750	-50.263889
6059.570312	-50.309841
6060.546875	-49.824146
6061.523438	-49.227188
6062.500000	-49.735085
6063.476562	-50.051769
6064.453125	-49.258430
6065.429688	-48.832031
6066.406250	-48.836723
6067.382812	-49.654678
6068.359375	-49.600742
6069.335938	-49.801346
6070.312500	-49.195271
6071.289062	-48.555981
6072.265625	-48.540638
6073.242188	-49.006786
6074.218750	-49.178036
6075.195312	-49.731533
6076.171875	-49.106243
6077.148438	-48.853786
6078.125000	-50.543278
6079.101562	-50.425705
6080.078125	-49.026669
6081.054688	-49.818069
6082.031250	-48.950516
6083.007812	-50.117958
6083.984375	-49.663563
6084.960938	-49.732792
6085.937500	-50.392548
6086.914062	-49.400738
6087.890625	-49.280254
6088.867188	-49.328297
6089.843750	-49.684792
6090.820312	-49.043777
6091.796875	-48.796463
6092.773438	-49.781662
6093.750000	-50.059654
6094.726562	-49.372471
6095.703125	-49.556339
6096.679688	-49.943893
6097.656250	-49.048088
6098.632812	-49.129688
6099.609375	-49.760712
6100.585938	-49.085953
6101.562500	-49.925415
6102.539062	-49.439838
6103.515625	-49.871132
6104.492188	-49.408394
6105.468750	-49.539387
6106.445312	-49.378780
6107.421875	-49.493004
6108.398438	-49.628433
6109.375000	-48.523155
6110.351562	-49.182251
6111.328125	-49.604824
6112.304688	-49.280476
6113.281250	-49.715443
6114.257812	-49.952045
6115.234375	-48.903431
6116.210938	-50.291706
6117.187500	-49.995728
6118.164062	-49.812450
6119.140625	-49.123703
6120.117188	-48.649227
6121.093750	-49.317242
6122.070312	-48.942303
6123.046875	-49.711258
6124.023438	-49.284512
6125.000000	-49.437225
6125.976562	-49.824043
6126.953125	-49.677521
6127.929688	-49.199257
6128.906250	-49.089031
6129.882812	-48.811207
6130.859375	-48.683739
6131.835938	-49.720249
6132.812500	-49.509464
6133.789062	-49.871246
6134.765625	-50.055935
6135.742188	-49.743195
6136.718750	-49.611050
6137.695312	-49.238705
6138.671875	-49.884701
6139.648438	-48.715321
6140.625000	-49.533646
6141.601562	-48.980160
6142.578125	-50.672668
6143.554688	-48.873905
6144.531250	-49.023838
6145.507812	-50.000599
6146.484375	-49.053612
6147.460938	-48.682716
6148.437500	-48.759491
6149.414062	-48.267761
6150.390625	-49.495014
6151.367188	-49.853348
6152.343750	-48.910835
6153.320312	-49.203373
6154.296875	-48.580769
6155.273438	-49.084995
6156.250000	-50.167774
6157.226562	-48.879379
6158.203125	-49.427898
6159.179688	-50.091305
6160.156250	-49.258114
6161.132812	-49.978374
6162.109375	-49.503387
6163.085938	-49.530716
6164.062500	-49.348816
6165.039062	-48.688908
6166.015625	-49.758038
6166.992188	-50.135120
6167.968750	-50.633850
6168.945312	-50.039627
6169.921875	-49.209389
6170.898438	-49.916084
6171.875000	-49.331562
6172.851562	-48.821381
6173.828125	-49.331654
6174.804688	-50.020985
6175.781250	-49.780460
6176.757812	-48.873470
6177.734375	-49.532551
6178.710938	-49.230350
6179.687500	-49.494610
6180.664062	-49.358608
6181.640625	-49.012154
6182.617188	-49.368835
6183.593750	-49.439266
6184.570312	-48.834290
6185.546875	-50.079659
6186.523438	-49.244892
6187.500000	-48.907078
6188.476562	-49.266773
6189.453125	-49.643848
6190.429688	-48.898476
6191.406250	-49.494709
6192.382812	-48.971600
6193.359375	-48.856628
6194.335938	-49.013626
6195.312500	-48.699898
6196.289062	-49.406551
6197.265625	-49.359283
6198.242188	-49.068840
6199.218750	-49.516232
6200.195312	-49.232716
6201.171875	-48.951626
6202.148438	-49.574692
6203.125000	-48.210651
6204.101562	-48.390224
6205.078125	-48.792412
6206.054688	-49.479401
6207.031250	-49.105217
6208.007812	-49.397953
6208.984375	-48.923954
6209.960938	-48.871288
6210.937500	-48.125328
6211.914062	-49.051170
6212.890625	-49.762844
6213.867188	-49.087868
6214.843750	-48.867546
6215.820312	-48.248653
6216.796875	-48.944721
6217.773438	-48.516613
6218.750000	-49.862095
6219.726562	-49.199032
6220.703125	-48.474701
6221.679688	-48.730087
6222.656250	-48.770523
6223.632812	-49.424221
6224.609375	-49.840977
6225.585938	-49.201126
6226.562500	-48.975101
6227.539062	-48.837395
6228.515625	-48.502323
6229.492188	-49.183502
6230.468750	-48.357956
6231.445312	-48.862026
6232.421875	-48.694572
6233.398438	-49.831947
6234.375000	-49.322529
6235.351562	-48.956024
6236.328125	-48.856430
6237.304688	-49.024105
6238.281250	-48.905197
6239.257812	-49.144569
6240.234375	-49.728188
6241.210938	-48.878555
6242.187500	-48.590652
6243.164062	-49.450214
6244.140625	-49.407188
6245.117188	-49.624767
6246.093750	-48.276760
6247.070312	-48.205368
6248.046875	-48.389458
6249.023438	-48.770397
6250.000000	-48.315838
6250.976562	-47.818916
6251.953125	-48.735996
6252.929688	-49.420113
6253.906250	-48.686596
6254.882812	-49.444359
6255.859375	-48.879944
6256.835938	-49.609989
6257.812500	-49.229286
6258.789062	-48.328770
6259.765625	-48.749641
6260.742188	-49.974796
6261.718750	-49.091774
6262.695312	-48.296329
6263.671875	-48.072174
6264.648438	-49.475643
6265.625000	-49.576721
6266.601562	-49.267372
6267.578125	-49.011520
6268.554688	-49.720768
6269.531250	-49.408875
6270.507812	-49.300503
6271.484375	-49.501328
6272.460938	-49.481289
6273.437500	-49.814949
6274.414062	-49.078339
6275.390625	-48.649479
6276.367188	-49.666504
6277.343750	-48.418255
6278.320312	-49.229233
6279.296875	-49.253502
6280.273438	-48.504768
6281.250000	-48.484241
6282.226562	-48.682781
6283.203125	-49.771660
6284.179688	-48.673500
6285.156250	-47.766029
6286.132812	-48.118038
6287.109375	-48.496292
6288.085938	-47.844681
6289.062500	-49.273712
6290.039062	-48.690025
6291.015625	-49.121536
6291.992188	-49.195751
6292.968750	-48.110287
6293.945312	-49.577156
6294.921875	-49.078651
6295.898438	-48.955826
6296.875000	-49.073124
6297.851562	-48.936954
6298.828125	-49.234673
6299.804688	-48.658226
6300.781250	-48.726372
6301.757812	-49.509274
6302.734375	-48.268337
6303.710938	-47.658897
6304.687500	-48.585121
6305.664062	-48.518673
6306.640625	-48.952091
6307.617188	-48.683048
6308.593750	-48.057564
6309.570312	-48.651131
6310.546875	-50.095619
6311.523438	-48.145782
6312.500000	-47.984058
6313.476562	-48.793926
6314.453125	-48.940239
6315.429688	-49.255943
6316.406250	-49.533455
6317.382812	-49.750843
6318.359375	-49.681095
6319.335938	-48.557507
6320.312500	-48.325020
6321.289062	-48.274773
6322.265625	-48.901543
6323.242188	-48.339767
6324.218750	-48.424324
6325.195312	-49.920193
6326.171875	-49.925549
6327.148438	-48.965073
6328.125000	-49.529522
6329.101562	-49.305897
6330.078125	-49.474407
6331.054688	-49.150646
6332.031250	-49.008064
6333.007812	-49.518730
6333.984375	-49.668545
6334.960938	-48.634987
6335.937500	-48.148197
6336.914062	-48.828484
6337.890625	-49.753571
6338.867188	-48.891872
6339.843750	-49.696236
6340.820312	-49.119541
6341.796875	-49.477432
6342.773438	-49.505234
6343.750000	-49.404564
6344.726562	-49.195889
6345.703125	-49.743946
6346.679688	-48.466118
6347.656250	-48.936291
6348.632812	-48.477646
6349.609375	-48.964897
6350.585938	-49.261913
6351.562500	-48.952965
6352.539062	-48.597542
6353.515625	-49.228451
6354.492188	-49.419888
6355.468750	-49.609886
6356.445312	-48.528244
6357.421875	-49.060150
6358.398438	-49.484722
6359.375000	-48.770737
6360.351562	-49.681545
6361.328125	-49.147003
6362.304688	-49.685284
6363.281250	-48.441299
6364.257812	-48.684757
6365.234375	-48.527618
6366.210938	-49.444870
6367.187500	-49.077160
6368.164062	-49.404072
6369.140625	-49.140392
6370.117188	-49.443546
6371.093750	-50.048489
6372.070312	-49.536686
6373.046875	-49.936131
6374.023438	-49.066978
6375.000000	-49.316219
6375.976562	-48.742836
6376.953125	-49.861763
6377.929688	-49.157425
6378.906250	-49.337807
6379.882812	-49.540859
6380.859375	-49.650017
6381.835938	-49.016663
6382.812500	-49.256672
6383.789062	-49.406734
6384.765625	-49.542492
6385.742188	-48.868877
6386.718750	-49.264980
6387.695312	-49.147369
6388.671875	-49.064457
6389.648438	-50.009499
6390.625000	-48.607746
6391.601562	-49.904659
6392.578125	-50.115707
6393.554688	-49.058216
6394.531250	-49.322357
6395.507812	-49.430069
6396.484375	-49.881954
6397.460938	-49.633270
6398.437500	-49.612827
6399.414062	-49.407429
6400.390625	-49.737213
6401.367188	-49.676788
6402.343750	-48.835995
6403.320312	-49.656090
6404.296875	-49.205837
6405.273438	-49.924397
6406.250000	-49.309853
6407.226562	-49.704487
6408.203125	-49.150299
6409.179688	-49.512451
6410.156250	-49.669052
6411.132812	-50.941402
6412.109375	-49.925571
6413.085938	-49.260956
6414.062500	-49.402805
6415.039062	-49.711586
6416.015625	-49.899982
6416.992188	-49.660091
6417.968750	-48.974190
6418.945312	-49.447556
6419.921875	-50.567657
6420.898438	-48.562466
6421.875000	-49.105862
6422.851562	-49.567726
6423.828125	-49.187130
6424.804688	-49.092674
6425.781250	-49.755608
6426.757812	-50.162167
6427.734375	-49.471924
6428.710938	-49.536690
6429.687500	-49.812691
6430.664062	-49.262779
6431.640625	-48.817390
6432.617188	-50.202087
6433.593750	-49.817955
6434.570312	-50.373989
6435.546875	-50.001320
6436.523438	-50.380436
6437.500000	-49.213383
6438.476562	-49.278736
6439.453125	-49.674252
6440.429688	-49.106548
6441.406250	-49.096210
6442.382812	-49.576809
6443.359375	-49.490314
6444.335938	-49.952309
6445.312500	-50.365471
6446.289062	-49.454510
6447.265625	-50.383095
6448.242188	-49.404068
6449.218750	-49.250278
6450.195312	-49.474766
6451.171875	-49.661720
6452.148438	-50.210896
6453.125000	-50.303032
6454.101562	-49.195095
6455.078125	-49.496391
6456.054688	-49.628841
6457.031250	-50.352909
6458.007812	-49.269001
6458.984375	-49.781189
6459.960938	-50.045269
6460.937500	-50.508198
6461.914062	-49.560146
6462.890625	-49.261395
6463.867188	-49.517712
6464.843750	-50.521770
6465.820312	-50.611195
6466.796875	-49.475578
6467.773438	-49.461517
6468.750000	-49.633659
6469.726562	-48.971184
6470.703125	-49.657303
6471.679688	-50.339931
6472.656250	-49.568039
6473.632812	-49.899864
6474.609375	-49.905220
6475.585938	-49.736588
6476.562500	-49.981262
6477.539062	-49.486744
6478.515625	-50.476234
6479.492188	-49.872345
6480.468750	-49.545059
6481.445312	-49.867603
6482.421875	-49.637520
6483.398438	-50.173725
6484.375000	-49.788509
6485.351562	-50.000305
6486.328125	-49.644318
6487.304688	-50.147770
6488.281250	-49.820129
6489.257812	-49.955357
6490.234375	-50.603607
6491.210938	-49.387253
6492.187500	-49.508541
6493.164062	-50.280697
6494.140625	-50.133305
6495.117188	-50.105827
6496.093750	-49.869354
6497.070312	-50.479969
6498.046875	-50.134369
6499.023438	-50.187237
6500.000000	-49.923481
6500.976562	-49.626266
6501.953125	-50.131908
6502.929688	-50.751987
6503.906250	-49.283447
6504.882812	-48.661564
6505.859375	-49.822300
6506.835938	-50.314384
6507.812500	-49.720604
6508.789062	-50.484615
6509.765625	-49.767220
6510.742188	-50.064030
6511.718750	-49.833759
6512.695312	-49.804836
6513.671875	-49.400387
6514.648438	-49.803391
6515.625000	-49.604412
6516.601562	-48.883041
6517.578125	-49.775654
6518.554688	-50.768833
6519.531250	-49.817810
6520.507812	-50.250080
6521.484375	-50.862621
6522.460938	-50.192619
6523.437500	-49.790684
6524.414062	-50.123013
6525.390625	-50.539326
6526.367188	-49.566540
6527.343750	-49.796921
6528.320312	-50.091240
6529.296875	-49.429089
6530.273438	-49.678230
6531.250000	-49.688240
6532.226562	-49.301498
6533.203125	-49.840672
6534.179688	-49.870445
6535.156250	-49.091900
6536.132812	-49.380177
6537.109375	-49.667610
6538.085938	-49.371395
6539.062500	-49.562252
6540.039062	-49.939640
6541.015625	-49.135178
6541.992188	-49.762424
6542.968750	-48.483860
6543.945312	-50.006969
6544.921875	-49.891632
6545.898438	-49.541252
6546.875000	-49.571091
6547.851562	-49.890263
6548.828125	-49.491791
6549.804688	-49.887676
6550.781250	-49.484455
6551.757812	-49.779003
6552.734375	-49.811817
6553.710938	-49.714066
6554.687500	-49.587887
6555.664062	-49.520229
6556.640625	-50.510502
6557.617188	-49.250130
6558.593750	-49.328728
6559.570312	-49.931038
6560.546875	-49.680210
6561.523438	-49.279827
6562.500000	-48.730293
6563.476562	-49.883457
6564.453125	-50.067314
6565.429688	-49.430565
6566.406250	-50.145428
6567.382812	-49.148987
6568.359375	-50.420078
6569.335938	-49.661812
6570.312500	-49.812065
6571.289062	-49.919708
6572.265625	-50.408001
6573.242188	-49.864075
6574.218750	-50.201965
6575.195312	-49.762318
6576.171875	-49.709362
6577.148438	-49.651470
6578.125000	-49.427486
6579.101562	-49.843746
6580.078125	-50.047081
6581.054688	-49.984570
6582.031250	-49.939274
6583.007812	-49.949875
6583.984375	-49.888645
6584.960938	-49.863098
6585.937500	-49.622791
6586.914062	-49.526344
6587.890625	-49.444580
6588.867188	-49.570404
6589.843750	-49.799847
6590.820312	-49.742485
6591.796875	-49.667492
6592.773438	-50.014412
6593.750000	-49.389481
6594.726562	-49.761459
6595.703125	-49.175797
6596.679688	-50.275703
6597.656250	-49.227695
6598.632812	-50.084900
6599.609375	-51.108212
6600.585938	-49.755196
6601.562500	-49.961838
6602.539062	-49.857357
6603.515625	-48.994328
6604.492188	-49.496311
6605.468750	-50.223217
6606.445312	-50.195004
6607.421875	-49.419739
6608.398438	-49.176800
6609.375000	-49.646446
6610.351562	-49.589340
6611.328125	-50.192574
6612.304688	-49.395908
6613.281250	-49.243580
6614.257812	-49.795391
6615.234375	-50.882019
6616.210938	-50.172901
6617.187500	-50.441200
6618.164062	-49.999081
6619.140625	-49.796349
6620.117188	-50.005344
6621.093750	-49.638458
6622.070312	-49.846615
6623.046875	-50.288071
6624.023438	-50.218227
6625.000000	-49.153381
6625.976562	-50.188152
6626.953125	-49.917812
6627.929688	-49.581009
6628.906250	-50.481216
6629.882812	-50.213341
6630.859375	-50.117218
6631.835938	-49.889336
6632.812500	-49.607334
6633.789062	-49.357475
6634.765625	-49.517067
6635.742188	-50.134819
6636.718750	-49.154629
6637.695312	-49.374390
6638.671875	-49.774616
6639.648438	-49.306301
6640.625000	-50.030743
6641.601562	-49.545139
6642.578125	-49.445251
6643.554688	-49.591679
6644.531250	-49.131908
6645.507812	-48.502991
6646.484375	-49.269882
6647.460938	-49.622955
6648.437500	-48.728043
6649.414062	-49.132202
6650.390625	-49.466084
6651.367188	-49.980610
6652.343750	-49.367161
6653.320312	-49.385426
6654.296875	-48.838787
6655.273438	-49.596771
6656.250000	-49.495922
6657.226562	-49.885025
6658.203125	-48.911423
6659.179688	-49.783085
6660.156250	-49.419746
6661.132812	-49.342903
6662.109375	-49.821342
6663.085938	-49.483814
6664.062500	-50.161335
6665.039062	-50.101269
6666.015625	-50.033043
6666.992188	-49.438301
6667.968750	-48.663731
6668.945312	-48.428589
6669.921875	-49.858669
6670.898438	-48.485779
6671.875000	-49.254539
6672.851562	-49.182587
6673.828125	-48.710079
6674.804688	-48.416668
6675.781250	-49.103485
6676.757812	-48.917633
6677.734375	-48.301704
6678.710938	-48.204884
6679.687500	-49.421314
6680.664062	-50.147881
6681.640625	-49.943623
6682.617188	-49.820763
6683.593750	-49.355545
6684.570312	-48.758728
6685.546875	-48.914494
6686.523438	-49.442696
6687.500000	-48.716026
6688.476562	-48.974560
6689.453125	-49.367584
6690.429688	-48.719437
6691.406250	-49.355457
6692.382812	-49.444191
6693.359375	-48.179100
6694.335938	-48.171059
6695.312500	-49.073727
6696.289062	-49.330311
6697.265625	-49.822453
6698.242188	-50.582726
6699.218750	-49.665146
6700.195312	-49.745464
6701.171875	-48.231598
6702.148438	-48.949165
6703.125000	-49.977295
6704.101562	-50.046295
6705.078125	-49.665531
6706.054688	-49.961220
6707.031250	-48.947418
6708.007812	-48.080589
6708.984375	-49.591297
6709.960938	-49.453651
6710.937500	-49.489826
6711.914062	-48.985687
6712.890625	-48.634041
6713.867188	-49.725353
6714.843750	-49.160179
6715.820312	-49.140511
6716.796875	-48.434498
6717.773438	-48.901093
6718.750000	-50.240192
6719.726562	-49.779697
6720.703125	-49.431812
6721.679688	-48.835369
6722.656250	-49.553284
6723.632812	-48.870667
6724.609375	-48.932537
6725.585938	-49.256924
6726.562500	-48.349007
6727.539062	-49.112762
6728.515625	-49.474148
6729.492188	-49.474449
6730.468750	-49.284443
6731.445312	-48.998230
6732.421875	-49.663254
6733.398438	-48.727394
6734.375000	-49.395203
6735.351562	-49.797203
6736.328125	-49.298851
6737.304688	-49.414520
6738.281250	-49.808048
6739.257812	-50.328487
6740.234375	-48.446400
6741.210938	-50.167011
6742.187500	-49.106571
6743.164062	-49.420807
6744.140625	-49.049824
6745.117188	-49.141712
6746.093750	-48.566833
6747.070312	-48.493168
6748.046875	-49.317146
6749.023438	-48.275177
6750.000000	-48.151707
6750.976562	-49.613842
6751.953125	-50.062981
6752.929688	-49.304890
6753.906250	-49.182869
6754.882812	-48.609856
6755.859375	-48.610069
6756.835938	-49.049881
6757.812500	-49.829800
6758.789062	-49.790310
6759.765625	-49.854893
6760.742188	-49.001202
6761.718750	-48.825405
6762.695312	-48.672585
6763.671875	-48.350285
6764.648438	-48.594307
6765.625000	-49.247757
6766.601562	-49.406555
6767.578125	-50.448036
6768.554688	-49.143959
6769.531250	-49.237637
6770.507812	-49.509026
6771.484375	-48.992165
6772.460938	-49.506359
6773.437500	-49.852314
6774.414062	-49.574516
6775.390625	-49.505531
6776.367188	-49.848015
6777.343750	-50.304581
6778.320312	-49.341251
6779.296875	-49.710423
6780.273438	-49.329201
6781.250000	-49.279118
6782.226562	-48.473839
6783.203125	-48.863945
6784.179688	-50.074760
6785.156250	-49.181000
6786.132812	-49.251659
6787.109375	-49.735527
6788.085938	-49.963764
6789.062500	-49.355797
6790.039062	-48.952469
6791.015625	-48.595387
6791.992188	-48.732010
6792.968750	-49.613953
6793.945312	-49.414082
6794.921875	-49.527859
6795.898438	-49.813038
6796.875000	-49.846119
6797.851562	-49.238689
6798.828125	-48.869816
6799.804688	-49.620174
6800.781250	-49.600014
6801.757812	-50.154945
6802.734375	-49.888947
6803.710938	-49.607479
6804.687500	-49.829250
6805.664062	-49.907631
6806.640625	-49.577053
6807.617188	-50.181847
6808.593750	-50.202404
6809.570312	-49.632732
6810.546875	-49.662182
6811.523438	-49.245110
6812.500000	-49.364914
6813.476562	-49.857933
6814.453125	-49.452961
6815.429688	-49.107056
6816.406250	-49.162704
6817.382812	-50.256664
6818.359375	-49.307308
6819.335938	-48.789299
6820.312500	-49.614990
6821.289062	-49.567760
6822.265625	-49.613079
6823.242188	-49.552906
6824.218750	-49.352741
6825.195312	-49.897522
6826.171875	-49.789478
6827.148438	-49.572407
6828.125000	-49.532238
6829.101562	-50.228432
6830.078125	-49.855602
6831.054688	-50.052643
6832.031250	-50.198322
6833.007812	-50.028522
6833.984375	-50.055809
6834.960938	-50.058765
6835.937500	-49.917206
6836.914062	-49.723965
6837.890625	-49.815159
6838.867188	-49.918247
6839.843750	-50.627609
6840.820312	-49.901455
6841.796875	-50.018242
6842.773438	-49.831821
6843.750000	-50.499519
6844.726562	-49.391819
6845.703125	-50.210526
6846.679688	-50.047508
6847.656250	-50.447914
6848.632812	-49.859787
6849.609375	-49.275745
6850.585938	-49.537350
6851.562500	-49.564419
6852.539062	-49.894287
6853.515625	-50.196362
6854.492188	-51.162819
6855.468750	-49.660019
6856.445312	-49.592678
6857.421875	-49.293716
6858.398438	-50.492065
6859.375000	-50.550568
6860.351562	-50.246986
6861.328125	-49.978809
6862.304688	-48.904129
6863.281250	-49.874477
6864.257812	-50.000492
6865.234375	-50.849503
6866.210938	-50.545044
6867.187500	-50.113613
6868.164062	-50.399181
6869.140625	-50.329918
6870.117188	-50.193546
6871.093750	-50.222466
6872.070312	-49.987362
6873.046875	-51.024284
6874.023438	-50.479980
6875.000000	-50.272446
6875.976562	-50.113613
6876.953125	-50.994518
6877.929688	-50.265396
6878.906250	-50.285522
6879.882812	-50.429256
6880.859375	-50.994549
6881.835938	-50.472198
6882.812500	-49.880146
6883.789062	-49.753731
6884.765625	-50.820503
6885.742188	-50.677212
6886.718750	-49.777294
6887.695312	-50.020390
6888.671875	-50.573502
6889.648438	-50.625156
6890.625000	-50.334297
6891.601562	-50.489201
6892.578125	-50.843212
6893.554688	-51.027279
6894.531250	-49.841255
6895.507812	-51.134285
6896.484375	-49.419785
6897.460938	-50.719051
6898.437500	-50.157341
6899.414062	-50.768269
6900.390625	-51.241089
6901.367188	-49.746998
6902.343750	-50.736649
6903.320312	-50.651642
6904.296875	-50.135761
6905.273438	-51.037369
6906.250000	-50.832436
6907.226562	-51.211296
6908.203125	-51.045322
6909.179688	-50.670391
6910.156250	-50.589249
6911.132812	-50.417881
6912.109375	-50.506382
6913.085938	-50.287411
6914.062500	-50.562126
6915.039062	-50.853973
6916.015625	-51.044067
6916.992188	-50.947140
6917.968750	-50.304256
6918.945312	-50.896961
6919.921875	-50.817230
6920.898438	-50.518993
6921.875000	-51.280602
6922.851562	-51.054447
6923.828125	-50.217072
6924.804688	-50.405258
6925.781250	-50.174728
6926.757812	-51.481937
6927.734375	-51.080326
6928.710938	-50.421963
6929.687500	-50.495331
6930.664062	-51.171467
6931.640625	-50.995510
6932.617188	-50.852917
6933.593750	-50.598793
6934.570312	-51.303623
6935.546875	-50.922443
6936.523438	-51.142773
6937.500000	-51.417812
6938.476562	-51.137127
6939.453125	-50.898022
6940.429688	-51.493176
6941.406250	-51.291195
6942.382812	-50.237965
6943.359375	-50.981457
6944.335938	-51.257687
6945.312500	-51.318542
6946.289062	-51.189850
6947.265625	-50.843349
6948.242188	-50.996685
6949.218750	-52.381119
6950.195312	-51.105816
6951.171875	-51.525330
6952.148438	-51.103661
6953.125000	-51.890491
6954.101562	-50.782070
6955.078125	-51.267086
6956.054688	-50.503021
6957.031250	-51.063583
6958.007812	-51.145412
6958.984375	-51.277481
6959.960938	-50.951431
6960.937500	-51.236721
6961.914062	-51.933563
6962.890625	-50.685780
6963.867188	-50.145000
6964.843750	-50.244896
6965.820312	-50.619976
6966.796875	-50.337414
6967.773438	-50.107899
6968.750000	-50.584579
6969.726562	-51.107803
6970.703125	-50.040272
6971.679688	-50.207821
6972.656250	-50.486691
6973.632812	-49.963898
6974.609375	-50.022137
6975.585938	-50.382549
6976.562500	-51.385464
6977.539062	-51.643272
6978.515625	-49.154884
6979.492188	-50.821835
6980.468750	-50.590332
6981.445312	-50.148048
6982.421875	-51.079643
6983.398438	-50.586620
6984.375000	-50.917316
6985.351562	-50.715778
6986.328125	-49.002720
6987.304688	-50.316612
6988.281250	-50.168194
6989.257812	-49.847435
6990.234375	-50.030533
6991.210938	-49.753277
6992.187500	-50.599327
6993.164062	-49.786335
6994.140625	-49.574245
6995.117188	-50.182133
6996.093750	-50.740730
6997.070312	-49.769577
6998.046875	-50.145683
6999.023438	-49.577480
7000.000000	-50.053352
7000.976562	-51.189335
7001.953125	-49.783401
7002.929688	-50.770336
7003.906250	-52.004524
7004.882812	-50.300755
7005.859375	-49.699821
7006.835938	-50.152164
7007.812500	-50.608234
7008.789062	-50.898125
7009.765625	-49.405033
7010.742188	-50.657578
7011.718750	-50.987339
7012.695312	-49.416759
7013.671875	-49.570808
7014.648438	-50.729744
7015.625000	-50.594791
7016.601562	-50.519817
7017.578125	-49.808964
7018.554688	-50.472984
7019.531250	-50.796185
7020.507812	-50.135666
7021.484375	-49.834194
7022.460938	-50.404915
7023.437500	-50.578377
7024.414062	-49.953129
7025.390625	-50.643192
7026.367188	-50.680592
7027.343750	-50.730484
7028.320312	-50.794548
7029.296875	-50.739563
7030.273438	-50.900784
7031.250000	-51.493622
7032.226562	-50.173130
7033.203125	-49.968632
7034.179688	-50.907021
7035.156250	-51.148941
7036.132812	-50.328083
7037.109375	-50.281208
7038.085938	-50.675751
7039.062500	-50.594326
7040.039062	-49.837627
7041.015625	-50.487595
7041.992188	-51.196651
7042.968750	-50.359089
7043.945312	-49.904594
7044.921875	-50.436718
7045.898438	-50.485764
7046.875000	-50.570957
7047.851562	-50.402489
7048.828125	-50.507957
7049.804688	-51.177864
7050.781250	-49.949715
7051.757812	-49.684048
7052.734375	-51.373280
7053.710938	-51.594032
7054.687500	-51.565464
7055.664062	-50.577248
7056.640625	-51.558647
7057.617188	-51.460915
7058.593750	-50.731316
7059.570312	-50.708290
7060.546875	-51.752388
7061.523438	-51.797291
7062.500000	-51.099678
7063.476562	-51.930111
7064.453125	-52.149597
7065.429688	-51.264061
7066.406250	-50.863510
7067.382812	-50.933880
7068.359375	-51.487923
7069.335938	-51.675804
7070.312500	-52.116631
7071.289062	-52.261536
7072.265625	-52.119690
7073.242188	-51.235813
7074.218750	-51.634789
7075.195312	-51.920464
7076.171875	-51.695793
7077.148438	-51.475590
7078.125000	-52.171940
7079.101562	-51.645222
7080.078125	-51.995350
7081.054688	-51.810635
7082.031250	-51.500584
7083.007812	-51.978275
7083.984375	-52.283539
7084.960938	-52.605320
7085.937500	-51.661942
7086.914062	-53.140820
7087.890625	-51.624359
7088.867188	-52.670078
7089.843750	-53.112194
7090.820312	-52.684963
7091.796875	-52.482330
7092.773438	-51.943241
7093.750000	-52.192440
7094.726562	-52.696049
7095.703125	-52.943916
7096.679688	-52.810009
7097.656250	-51.998821
7098.632812	-52.290771
7099.609375	-52.764900
7100.585938	-52.796089
7101.562500	-52.969097
7102.539062	-53.194492
7103.515625	-53.234497
7104.492188	-52.562893
7105.468750	-52.698597
7106.445312	-53.098907
7107.421875	-53.349159
7108.398438	-53.620750
7109.375000	-52.961353
7110.351562	-52.916351
7111.328125	-53.092354
7112.304688	-53.055519
7113.281250	-52.574272
7114.257812	-53.384426
7115.234375	-53.530956
7116.210938	-53.270168
7117.187500	-54.135242
7118.164062	-53.023773
7119.140625	-52.931664
7120.117188	-52.567356
7121.093750	-52.731712
7122.070312	-53.366943
7123.046875	-53.099712
7124.023438	-53.991695
7125.000000	-53.703316
7125.976562	-53.536739
7126.953125	-54.028328
7127.929688	-53.718113
7128.906250	-53.712326
7129.882812	-53.584633
7130.859375	-53.681751
7131.835938	-53.418793
7132.812500	-52.977844
7133.789062	-53.947403
7134.765625	-53.998131
7135.742188	-53.382843
7136.718750	-54.103756
7137.695312	-55.249741
7138.671875	-53.487576
7139.648438	-53.523636
7140.625000	-54.421650
7141.601562	-53.982258
7142.578125	-53.327854
7143.554688	-53.667118
7144.531250	-53.726913
7145.507812	-55.067875
7146.484375	-53.836941
7147.460938	-54.508308
7148.437500	-54.227310
7149.414062	-54.042728
7150.390625	-53.564350
7151.367188	-53.386440
7152.343750	-53.884953
7153.320312	-54.946411
7154.296875	-54.265709
7155.273438	-55.210575
7156.250000	-55.712643
7157.226562	-55.454964
7158.203125	-53.958462
7159.179688	-54.127029
7160.156250	-54.356274
7161.132812	-53.857563
7162.109375	-53.890503
7163.085938	-54.667461
7164.062500	-55.086678
7165.039062	-54.281147
7166.015625	-54.392532
7166.992188	-54.315807
7167.968750	-55.237709
7168.945312	-54.665180
7169.921875	-54.458561
7170.898438	-54.272896
7171.875000	-56.165653
7172.851562	-55.123177
7173.828125	-54.729622
7174.804688	-54.276108
7175.781250	-54.422462
7176.757812	-54.726761
7177.734375	-54.787746
7178.710938	-54.695709
7179.687500	-55.045399
7180.664062	-55.257759
7181.640625	-55.403446
7182.617188	-54.842064
7183.593750	-55.311256
7184.570312	-55.760849
7185.546875	-55.404671
7186.523438	-55.330173
7187.500000	-55.784939
7188.476562	-56.316692
7189.453125	-55.517185
7190.429688	-55.339462
7191.406250	-54.716835
7192.382812	-55.046154
7193.359375	-55.576969
7194.335938	-55.550484
7195.312500	-55.480576
7196.289062	-55.409073
7197.265625	-55.757248
7198.242188	-54.903404
7199.218750	-55.552902
7200.195312	-54.690262
7201.171875	-54.982193
7202.148438	-56.084320
7203.125000	-55.222252
7204.101562	-55.575085
7205.078125	-55.544064
7206.054688	-55.735817
7207.031250	-55.313229
7208.007812	-54.404949
7208.984375	-56.397076
7209.960938	-55.738106
7210.937500	-55.315357
7211.914062	-55.433983
7212.890625	-56.076061
7213.867188	-55.097786
7214.843750	-55.520428
7215.820312	-55.658272
7216.796875	-56.326706
7217.773438	-56.507736
7218.750000	-55.888821
7219.726562	-56.089817
7220.703125	-56.371136
7221.679688	-56.350471
7222.656250	-55.992607
7223.632812	-56.744476
7224.609375	-56.700642
7225.585938	-55.625854
7226.562500	-54.831097
7227.539062	-56.381866
7228.515625	-55.726654
7229.492188	-55.058788
7230.468750	-56.194073
7231.445312	-56.464401
7232.421875	-56.509277
7233.398438	-56.680637
7234.375000	-55.969875
7235.351562	-56.865673
7236.328125	-56.540890
7237.304688	-56.239388
7238.281250	-57.398640
7239.257812	-57.260052
7240.234375	-56.621037
7241.210938	-56.647514
7242.187500	-56.708786
7243.164062	-56.940922
7244.140625	-56.908329
7245.117188	-56.834000
7246.093750	-57.033916
7247.070312	-56.797375
7248.046875	-56.991783
7249.023438	-57.200256
7250.000000	-56.502911
7250.976562	-56.625423
7251.953125	-56.972878
7252.929688	-56.237602
7253.906250	-57.652500
7254.882812	-57.058594
7255.859375	-56.918518
7256.835938	-56.738201
7257.812500	-56.936440
7258.789062	-57.262608
7259.765625	-57.788219
7260.742188	-57.050724
7261.718750	-56.807426
7262.695312	-56.904060
7263.671875	-58.061195
7264.648438	-57.793018
7265.625000	-57.915222
7266.601562	-58.088680
7267.578125	-58.458656
7268.554688	-57.778931
7269.531250	-57.731216
7270.507812	-58.151455
7271.484375	-57.525047
7272.460938	-57.853523
7273.437500	-58.495300
7274.414062	-58.354813
7275.390625	-57.969227
7276.367188	-58.054066
7277.343750	-58.532990
7278.320312	-58.868477
7279.296875	-57.722290
7280.273438	-58.792389
7281.250000	-58.487064
7282.226562	-58.085007
7283.203125	-58.551979
7284.179688	-58.740273
7285.156250	-57.346172
7286.132812	-58.359314
7287.109375	-58.766190
7288.085938	-58.578411
7289.062500	-57.948303
7290.039062	-58.349342
7291.015625	-58.868687
7291.992188	-58.258274
7292.968750	-58.051453
7293.945312	-58.228889
7294.921875	-58.481026
7295.898438	-58.816574
7296.875000	-59.639263
7297.851562	-59.037243
7298.828125	-58.382927
7299.804688	-59.952171
7300.781250	-59.203228
7301.757812	-59.023651
7302.734375	-59.355091
7303.710938	-59.733807
7304.687500	-59.453083
7305.664062	-59.949341
7306.640625	-58.793880
7307.617188	-59.732998
7308.593750	-59.739239
7309.570312	-60.164593
7310.546875	-58.684238
7311.523438	-58.858685
7312.500000	-60.137367
7313.476562	-59.886501
7314.453125	-59.231308
7315.429688	-60.121910
7316.406250	-59.121304
7317.382812	-59.960369
7318.359375	-59.415722
7319.335938	-60.560429
7320.312500	-60.122219
7321.289062	-60.609020
7322.265625	-59.690937
7323.242188	-59.757889
7324.218750	-59.575481
7325.195312	-60.251286
7326.171875	-60.730663
7327.148438	-59.809929
7328.125000	-59.987530
7329.101562	-60.696148
7330.078125	-60.447372
7331.054688	-59.318035
7332.031250	-59.204597
7333.007812	-60.010410
7333.984375	-59.457981
7334.960938	-60.594692
7335.937500	-60.957203
7336.914062	-60.151718
7337.890625	-60.783325
7338.867188	-60.596668
7339.843750	-60.374676
7340.820312	-60.054554
7341.796875	-61.350708
7342.773438	-61.252586
7343.750000	-60.457581
7344.726562	-60.462925
7345.703125	-60.864769
7346.679688	-59.744534
7347.656250	-61.068367
7348.632812	-60.470860
7349.609375	-61.166248
7350.585938	-61.307346
7351.562500	-61.627449
7352.539062	-61.568588
7353.515625	-60.538628
7354.492188	-61.376713
7355.468750	-60.985901
7356.445312	-61.783592
7357.421875	-60.392475
7358.398438	-60.637508
7359.375000	-61.519272
7360.351562	-61.406422
7361.328125	-61.465130
7362.304688	-60.922737
7363.281250	-61.355701
7364.257812	-61.526314
7365.234375	-61.735023
7366.210938	-61.404964
7367.187500	-61.863831
7368.164062	-60.860252
7369.140625	-60.936962
7370.117188	-61.887863
7371.093750	-62.650005
7372.070312	-61.524868
7373.046875	-61.715889
7374.023438	-62.122917
7375.000000	-61.655060
7375.976562	-61.918964
7376.953125	-62.108536
7377.929688	-62.373718
7378.906250	-62.864910
7379.882812	-62.261108
7380.859375	-63.076653
7381.835938	-61.929329
7382.812500	-62.867672
7383.789062	-62.835880
7384.765625	-62.735016
7385.742188	-61.915165
7386.718750	-62.646687
7387.695312	-62.355270
7388.671875	-62.728973
7389.648438	-63.014469
7390.625000	-62.780155
7391.601562	-63.525246
7392.578125	-63.704052
7393.554688	-63.306030
7394.531250	-63.268574
7395.507812	-64.195175
7396.484375	-63.245541
7397.460938	-63.135696
7398.437500	-63.074131
7399.414062	-62.866367
7400.390625	-63.304581
7401.367188	-64.230637
7402.343750	-63.945942
7403.320312	-64.498543
7404.296875	-63.951550
7405.273438	-63.719807
7406.250000	-64.010521
7407.226562	-63.496349
7408.203125	-63.258400
7409.179688	-63.797531
7410.156250	-63.286579
7411.132812	-64.121147
7412.109375	-64.097221
7413.085938	-64.097496
7414.062500	-64.346100
7415.039062	-63.744156
7416.015625	-63.735138
7416.992188	-64.594803
7417.968750	-63.982292
7418.945312	-64.320679
7419.921875	-64.671959
7420.898438	-65.023048
7421.875000	-63.992943
7422.851562	-64.123093
7423.828125	-64.430435
7424.804688	-64.680756
7425.781250	-64.691322
7426.757812	-65.165337
7427.734375	-65.014946
7428.710938	-64.622787
7429.687500	-64.467804
7430.664062	-65.188316
7431.640625	-64.641060
7432.617188	-66.212555
7433.593750	-64.771538
7434.570312	-65.096634
7435.546875	-65.673943
7436.523438	-65.630325
7437.500000	-65.302376
7438.476562	-64.985069
7439.453125	-66.208565
7440.429688	-65.589012
7441.406250	-65.622688
7442.382812	-64.974899
7443.359375	-65.218224
7444.335938	-66.060776
7445.312500	-65.692795
7446.289062	-65.893700
7447.265625	-66.067268
7448.242188	-65.998474
7449.218750	-65.977722
7450.195312	-66.004929
7451.171875	-66.719620
7452.148438	-66.276016
7453.125000	-66.277779
7454.101562	-66.283211
7455.078125	-66.564232
7456.054688	-67.667862
7457.031250	-67.409286
7458.007812	-66.923134
7458.984375	-66.518394
7459.960938	-66.415543
7460.937500	-66.831779
7461.914062	-66.615387
7462.890625	-67.487167
7463.867188	-67.227386
7464.843750	-67.537315
7465.820312	-67.613495
7466.796875	-67.757057
7467.773438	-67.471840
7468.750000	-66.938553
7469.726562	-66.502533
7470.703125	-67.835716
7471.679688	-67.702248
7472.656250	-67.709671
7473.632812	-68.462463
7474.609375	-68.187317
7475.585938	-68.683853
7476.562500	-67.833847
7477.539062	-69.348671
7478.515625	-68.581406
7479.492188	-67.900162
7480.468750	-67.757133
7481.445312	-68.794907
7482.421875	-68.047554
7483.398438	-68.080719
7484.375000	-68.221466
7485.351562	-70.196114
7486.328125	-69.304916
7487.304688	-68.549881
7488.281250	-68.902756
7489.257812	-69.674919
7490.234375	-68.911278
7491.210938	-69.328690
7492.187500	-68.340897
7493.164062	-68.486389
7494.140625	-69.621857
7495.117188	-70.355133
7496.093750	-69.379616
7497.070312	-69.903160
7498.046875	-70.070900
7499.023438	-70.341209
7500.000000	-69.504608
7500.976562	-69.812920
7501.953125	-70.542023
7502.929688	-70.363487
7503.906250	-70.830330
7504.882812	-70.704010
7505.859375	-70.048019
7506.835938	-70.839912
7507.812500	-70.967155
7508.789062	-71.325340
7509.765625	-70.793129
7510.742188	-71.801460
7511.718750	-71.144112
7512.695312	-71.417473
7513.671875	-70.941902
7514.648438	-71.189629
7515.625000	-71.251167
7516.601562	-71.361763
7517.578125	-71.416214
7518.554688	-71.960014
7519.531250	-71.492973
7520.507812	-72.716545
7521.484375	-71.464317
7522.460938	-72.378555
7523.437500	-72.046455
7524.414062	-72.716545
7525.390625	-72.116051
7526.367188	-71.478752
7527.343750	-72.515602
7528.320312	-71.977852
7529.296875	-72.452782
7530.273438	-72.609123
7531.250000	-73.032928
7532.226562	-73.076782
7533.203125	-73.115501
7534.179688	-73.686783
7535.156250	-73.742867
7536.132812	-73.234879
7537.109375	-73.094002
7538.085938	-73.719460
7539.062500	-73.332794
7540.039062	-74.094498
7541.015625	-74.391495
7541.992188	-73.485657
7542.968750	-74.021896
7543.945312	-74.605499
7544.921875	-74.621155
7545.898438	-74.649918
7546.875000	-73.916939
7547.851562	-75.246574
7548.828125	-74.748741
7549.804688	-73.627449
7550.781250	-73.974083
7551.757812	-75.390266
7552.734375	-75.824806
7553.710938	-75.159393
7554.687500	-74.989891
7555.664062	-74.557983
7556.640625	-74.220840
7557.617188	-74.019585
7558.593750	-75.603134
7559.570312	-75.181908
7560.546875	-75.541603
7561.523438	-75.707825
7562.500000	-75.295578
7563.476562	-75.522034
7564.453125	-75.405113
7565.429688	-75.746979
7566.406250	-75.888916
7567.382812	-75.366005
7568.359375	-75.634567
7569.335938	-75.101921
7570.312500	-75.985306
7571.289062	-75.460358
7572.265625	-76.578110
7573.242188	-76.285271
7574.218750	-75.970551
7575.195312	-76.178360
7576.171875	-76.642044
7577.148438	-76.471123
7578.125000	-76.801605
7579.101562	-76.301727
7580.078125	-76.144615
7581.054688	-76.310440
7582.031250	-76.206329
7583.007812	-77.043037
7583.984375	-76.773270
7584.960938	-76.926865
7585.937500	-76.425911
7586.914062	-76.363861
7587.890625	-76.960503
7588.867188	-77.072548
7589.843750	-76.696198
7590.820312	-77.184708
7591.796875	-77.195473
7592.773438	-77.818375
7593.750000	-76.614746
7594.726562	-77.087883
7595.703125	-76.891197
7596.679688	-77.698608
7597.656250	-77.697487
7598.632812	-77.510902
7599.609375	-77.921799
7600.585938	-77.751038
7601.562500	-77.631042
7602.539062	-78.347321
7603.515625	-77.423897
7604.492188	-77.491882
7605.468750	-78.166634
7606.445312	-78.385620
7607.421875	-78.076347
7608.398438	-77.950356
7609.375000	-78.457405
7610.351562	-78.071609
7611.328125	-77.452896
7612.304688	-78.186714
7613.281250	-78.669296
7614.257812	-77.837029
7615.234375	-78.025887
7616.210938	-78.462875
7617.187500	-78.869965
7618.164062	-78.050461
7619.140625	-78.805557
7620.117188	-78.574196
7621.093750	-78.461555
7622.070312	-78.281136
7623.046875	-78.205116
7624.023438	-78.770569
7625.000000	-78.574577
7625.976562	-78.896416
7626.953125	-78.921738
7627.929688	-78.795036
7628.906250	-79.070831
7629.882812	-78.612000
7630.859375	-79.103722
7631.835938	-78.843620
7632.812500	-78.708122
7633.789062	-79.047897
7634.765625	-78.595108
7635.742188	-79.182442
7636.718750	-79.362579
7637.695312	-79.332695
7638.671875	-79.054443
7639.648438	-79.223442
7640.625000	-79.014969
7641.601562	-79.314789
7642.578125	-79.403679
7643.554688	-79.332741
7644.531250	-79.170052
7645.507812	-79.394821
7646.484375	-78.977249
7647.460938	-79.193909
7648.437500	-79.676590
7649.414062	-79.104988
7650.390625	-79.434410
7651.367188	-79.284454
7652.343750	-79.552521
7653.320312	-79.469902
7654.296875	-79.483002
7655.273438	-79.387871
7656.250000	-79.802216
7657.226562	-79.416618
7658.203125	-79.815582
7659.179688	-79.276703
7660.156250	-79.444588
7661.132812	-79.427032
7662.109375	-79.478104
7663.085938	-79.639198
7664.062500	-79.725296
7665.039062	-79.772667
7666.015625	-79.722488
7666.992188	-79.360802
7667.968750	-79.749962
7668.945312	-79.502113
7669.921875	-79.749939
7670.898438	-79.604172
7671.875000	-79.883774
7672.851562	-79.830597
7673.828125	-79.688385
7674.804688	-79.940155
7675.781250	-79.812874
7676.757812	-79.827652
7677.734375	-79.801842
7678.710938	-80.068672
7679.687500	-80.056274
7680.664062	-80.171410
7681.640625	-79.871193
7682.617188	-80.068085
7683.593750	-79.996956
7684.570312	-79.855339
7685.546875	-79.870697
7686.523438	-79.842651
7687.500000	-79.952103
7688.476562	-80.007233
7689.453125	-80.229446
7690.429688	-79.843346
7691.406250	-79.864235
7692.382812	-79.916985
7693.359375	-79.945770
7694.335938	-80.013161
7695.312500	-80.182732
7696.289062	-80.063416
7697.265625	-80.058792
7698.242188	-80.051804
7699.218750	-80.047661
7700.195312	-80.010376
7701.171875	-80.172356
7702.148438	-79.983116
7703.125000	-79.991859
7704.101562	-79.759216
7705.078125	-80.051186
7706.054688	-80.084702
7707.031250	-80.146904
7708.007812	-80.136765
7708.984375	-80.268379
7709.960938	-80.119202
7710.937500	-80.157555
7711.914062	-80.235817
7712.890625	-80.076164
7713.867188	-80.194817
7714.843750	-80.115425
7715.820312	-80.233597
7716.796875	-80.157265
7717.773438	-80.104897
7718.750000	-80.189247
7719.726562	-80.193886
7720.703125	-80.177925
7721.679688	-80.102722
7722.656250	-80.241341
7723.632812	-80.122330
7724.609375	-80.159035
7725.585938	-80.150047
7726.562500	-80.291023
7727.539062	-80.158066
7728.515625	-80.187668
7729.492188	-80.372292
7730.468750	-80.258034
7731.445312	-80.326546
7732.421875	-80.205414
7733.398438	-80.307053
7734.375000	-80.308800
7735.351562	-80.225578
7736.328125	-80.280525
7737.304688	-80.306664
7738.281250	-80.188744
7739.257812	-80.272423
7740.234375	-80.358261
7741.210938	-80.290504
7742.187500	-80.367508
7743.164062	-80.295845
7744.140625	-80.351173
7745.117188	-80.268250
7746.093750	-80.274147
7747.070312	-80.342384
7748.046875	-80.332390
7749.023438	-80.293358
7750.000000	-80.265625
7750.976562	-80.324493
7751.953125	-80.377007
7752.929688	-80.320442
7753.906250	-80.281334
7754.882812	-80.299889
7755.859375	-80.333847
7756.835938	-80.317230
7757.812500	-80.285812
7758.789062	-80.382637
7759.765625	-80.345131
7760.742188	-80.345291
7761.718750	-80.252434
7762.695312	-80.308762
7763.671875	-80.338844
7764.648438	-80.284721
7765.625000	-80.306908
7766.601562	-80.355026
7767.578125	-80.311424
7768.554688	-80.331718
7769.531250	-80.291336
7770.507812	-80.369621
7771.484375	-80.380348
7772.460938	-80.353745
7773.437500	-80.305183
7774.414062	-80.350060
7775.390625	-80.334831
7776.367188	-80.349693
7777.343750	-80.384834
7778.320312	-80.363731
7779.296875	-80.308578
7780.273438	-80.351845
7781.250000	-80.360481
7782.226562	-80.346909
7783.203125	-80.375069
7784.179688	-80.317604
7785.156250	-80.371475
7786.132812	-80.350266
7787.109375	-80.354935
7788.085938	-80.387070
7789.062500	-80.377792
7790.039062	-80.371368
7791.015625	-80.362656
7791.992188	-80.357140
7792.968750	-80.369095
7793.945312	-80.382050
7794.921875	-80.362099
7795.898438	-80.372444
7796.875000	-80.359192
7797.851562	-80.406303
7798.828125	-80.381767
7799.804688	-80.383774
7800.781250	-80.370178
7801.757812	-80.397041
7802.734375	-80.385582
7803.710938	-80.384491
7804.687500	-80.374573
7805.664062	-80.404068
7806.640625	-80.390305
7807.617188	-80.382957
7808.593750	-80.379425
7809.570312	-80.395546
7810.546875	-80.390511
7811.523438	-80.398834
7812.500000	-80.407028
7813.476562	-80.369133
7814.453125	-80.374870
7815.429688	-80.397614
7816.406250	-80.386009
7817.382812	-80.392754
7818.359375	-80.365723
7819.335938	-80.377159
7820.312500	-80.387650
7821.289062	-80.401085
7822.265625	-80.386238
7823.242188	-80.371040
7824.218750	-80.389343
7825.195312	-80.389091
7826.171875	-80.405869
7827.148438	-80.393929
7828.125000	-80.403572
7829.101562	-80.399200
7830.078125	-80.391090
7831.054688	-80.398796
7832.031250	-80.404961
7833.007812	-80.406288
7833.984375	-80.410332
7834.960938	-80.394981
7835.937500	-80.405998
7836.914062	-80.397171
7837.890625	-80.396103
7838.867188	-80.404694
7839.843750	-80.397209
7840.820312	-80.402298
7841.796875	-80.390724
7842.773438	-80.401115
7843.750000	-80.398628
7844.726562	-80.400803
7845.703125	-80.403366
7846.679688	-80.390480
7847.656250	-80.404602
7848.632812	-80.403259
7849.609375	-80.404907
7850.585938	-80.410515
7851.562500	-80.409645
7852.539062	-80.405479
7853.515625	-80.405380
7854.492188	-80.405830
7855.468750	-80.403770
7856.445312	-80.411163
7857.421875	-80.403183
7858.398438	-80.404587
7859.375000	-80.408134
7860.351562	-80.406044
7861.328125	-80.408676
7862.304688	-80.408699
7863.281250	-80.406624
7864.257812	-80.408394
7865.234375	-80.412453
7866.210938	-80.407181
7867.187500	-80.410881
7868.164062	-80.412262
7869.140625	-80.413506
7870.117188	-80.409348
7871.093750	-80.410347
7872.070312	-80.414078
7873.046875	-80.410858
7874.023438	-80.412994
7875.000000	-80.412766
7875.976562	-80.412865
7876.953125	-80.412170
7877.929688	-80.410095
7878.906250	-80.414383
7879.882812	-80.415863
7880.859375	-80.412766
7881.835938	-80.413719
7882.812500	-80.413010
7883.789062	-80.413612
7884.765625	-80.417557
7885.742188	-80.416008
7886.718750	-80.415062
7887.695312	-80.415955
7888.671875	-80.416679
7889.648438	-80.417961
7890.625000	-80.417473
7891.601562	-80.418655
7892.578125	-80.417229
7893.554688	-80.416924
7894.531250	-80.418671
7895.507812	-80.420143
7896.484375	-80.419075
7897.460938	-80.418938
7898.437500	-80.420418
7899.414062	-80.418793
7900.390625	-80.419724
7901.367188	-80.420509
7902.343750	-80.420044
7903.320312	-80.420876
7904.296875	-80.420799
7905.273438	-80.420761
7906.250000	-80.422485
7907.226562	-80.420761
7908.203125	-80.421471
7909.179688	-80.421242
7910.156250	-80.422325
7911.132812	-80.421494
7912.109375	-80.422386
7913.085938	-80.422211
7914.062500	-80.422920
7915.039062	-80.423027
7916.015625	-80.423149
7916.992188	-80.424492
7917.968750	-80.423637
7918.945312	-80.424461
7919.921875	-80.424088
7920.898438	-80.423958
7921.875000	-80.425125
7922.851562	-80.425125
7923.828125	-80.425301
7924.804688	-80.425346
7925.781250	-80.425484
7926.757812	-80.425705
7927.734375	-80.425690
7928.710938	-80.425987
7929.687500	-80.426399
7930.664062	-80.426430
7931.640625	-80.427139
7932.617188	-80.426498
7933.593750	-80.426727
7934.570312	-80.426735
7935.546875	-80.427109
7936.523438	-80.427437
7937.500000	-80.427399
7938.476562	-80.427795
7939.453125	-80.427734
7940.429688	-80.427879
7941.406250	-80.428070
7942.382812	-80.428322
7943.359375	-80.428459
7944.335938	-80.428558
7945.312500	-80.428650
7946.289062	-80.428658
7947.265625	-80.429016
7948.242188	-80.428993
7949.218750	-80.429214
7950.195312	-80.429298
7951.171875	-80.429405
7952.148438	-80.429520
7953.125000	-80.429634
7954.101562	-80.429688
7955.078125	-80.429863
7956.054688	-80.429924
7957.031250	-80.430046
7958.007812	-80.430176
7958.984375	-80.430206
7959.960938	-80.430351
7960.937500	-80.430489
7961.914062	-80.430504
7962.890625	-80.430672
7963.867188	-80.430733
7964.843750	-80.430824
7965.820312	-80.430885
7966.796875	-80.431000
7967.773438	-80.431061
7968.750000	-80.431137
7969.726562	-80.431221
7970.703125	-80.431290
7971.679688	-80.431343
7972.656250	-80.431419
7973.632812	-80.431488
7974.609375	-80.431541
7975.585938	-80.431595
7976.562500	-80.431656
7977.539062	-80.431717
7978.515625	-80.431778
7979.492188	-80.431839
7980.468750	-80.431877
7981.445312	-80.431915
7982.421875	-80.431961
7983.398438	-80.431999
7984.375000	-80.432053
7985.351562	-80.432076
7986.328125	-80.432137
7987.304688	-80.432152
7988.281250	-80.432152
7989.257812	-80.432205
7990.234375	-80.432236
7991.210938	-80.432266
7992.187500	-80.432259
7993.164062	-80.432274
7994.140625	-80.432312
7995.117188	-80.432297
7996.093750	-80.432327
7997.070312	-80.432327
7998.046875	-80.432327
7999.023438	-80.432350
