Frequency (Hz)	Level (dB)
0.976562	-60.816933
1.953125	-59.376114
2.929688	-54.618252
3.906250	-48.443703
4.882812	-50.893238
5.859375	-54.677559
6.835938	-51.655968
7.812500	-44.979095
8.789062	-47.153370
9.765625	-52.208637
10.742188	-51.264362
11.718750	-45.225250
12.695312	-44.498199
13.671875	-52.088715
14.648438	-49.355431
15.625000	-46.449348
16.601562	-45.365105
17.578125	-50.645344
18.554688	-48.852657
19.531250	-47.692234
20.507812	-46.808022
21.484375	-49.753403
22.460938	-50.399319
23.437500	-48.221878
24.414062	-48.381290
25.390625	-48.371216
26.367188	-48.913383
27.343750	-49.415962
28.320312	-46.900341
29.296875	-48.749805
30.273438	-49.525814
31.250000	-50.033253
32.226562	-48.855530
33.203125	-49.455536
34.179688	-50.733677
35.156250	-51.117176
36.132812	-49.193142
37.109375	-48.841503
38.085938	-48.997498
39.062500	-51.603779
40.039062	-51.080166
41.015625	-49.869675
41.992188	-49.719250
42.968750	-51.312218
43.945312	-50.691860
44.921875	-49.891632
45.898438	-49.964012
46.875000	-51.261627
47.851562	-50.763672
48.828125	-50.232224
49.804688	-50.704628
50.781250	-51.710548
51.757812	-51.554054
52.734375	-49.153168
53.710938	-50.677750
54.687500	-50.805515
55.664062	-51.103516
56.640625	-48.659866
57.617188	-49.832100
58.593750	-51.104939
59.570312	-51.312740
60.546875	-51.081699
61.523438	-50.386566
62.500000	-52.155621
63.476562	-52.800922
64.453125	-50.125301
65.429688	-51.262775
66.406250	-51.917919
67.382812	-51.507793
68.359375	-51.566837
69.335938	-49.898811
70.312500	-51.155903
71.289062	-52.123993
72.265625	-51.455925
73.242188	-52.726265
74.218750	-51.966614
75.195312	-50.955128
76.171875	-51.897167
77.148438	-51.457214
78.125000	-52.973816
79.101562	-52.447968
80.078125	-51.699875
81.054688	-52.320023
82.031250	-52.024197
83.007812	-53.520199
83.984375	-51.253407
84.960938	-49.774410
85.937500	-53.870117
86.914062	-53.257404
87.890625	-51.996559
88.867188	-50.970730
89.843750	-51.469887
90.820312	-52.643867
91.796875	-53.013733
92.773438	-51.934261
93.750000	-51.879498
94.726562	-53.275173
95.703125	-52.028481
96.679688	-49.454914
97.656250	-50.315517
98.632812	-52.723721
99.609375	-51.960140
100.585938	-51.610195
101.562500	-51.092560
102.539062	-52.699001
103.515625	-51.280743
104.492188	-49.588310
105.468750	-51.752525
106.445312	-52.235588
107.421875	-52.873577
108.398438	-51.023232
109.375000	-50.603447
110.351562	-50.896278
111.328125	-51.534657
112.304688	-50.588444
113.281250	-51.179924
114.257812	-51.800446
115.234375	-51.563141
116.210938	-51.807671
117.187500	-51.333839
118.164062	-51.070698
119.140625	-51.054592
120.117188	-51.124874
121.093750	-50.488064
122.070312	-50.623032
123.046875	-50.399403
124.023438	-51.171268
125.000000	-52.105927
125.976562	-51.712143
126.953125	-50.992283
127.929688	-51.419987
128.906250	-52.076469
129.882812	-51.005650
130.859375	-51.179531
131.835938	-51.206760
132.812500	-50.869690
133.789062	-50.784622
134.765625	-50.324173
135.742188	-51.059605
136.718750	-51.298573
137.695312	-50.801308
138.671875	-50.569515
139.648438	-50.452709
140.625000	-50.742195
141.601562	-50.251068
142.578125	-50.516010
143.554688	-48.731255
144.531250	-50.392063
145.507812	-50.704189
146.484375	-49.467113
147.460938	-49.675716
148.437500	-49.703594
149.414062	-49.821178
150.390625	-48.284119
151.367188	-49.852013
152.343750	-49.512600
153.320312	-49.965607
154.296875	-48.385574
155.273438	-48.660618
156.250000	-49.743557
157.226562	-49.535900
158.203125	-48.215233
159.179688	-48.088604
160.156250	-48.468861
161.132812	-48.584995
162.109375	-47.893917
163.085938	-48.550907
164.062500	-48.180786
165.039062	-48.593178
166.015625	-47.572662
166.992188	-47.422260
167.968750	-48.843452
168.945312	-48.740410
169.921875	-47.832783
170.898438	-47.760071
171.875000	-48.392231
172.851562	-47.055363
173.828125	-46.877106
174.804688	-46.746616
175.781250	-45.919678
176.757812	-46.530785
177.734375	-45.029613
178.710938	-44.660480
179.687500	-44.232918
180.664062	-44.197258
181.640625	-42.768276
182.617188	-40.030506
183.593750	-40.471046
184.570312	-39.880238
185.546875	-38.860939
186.523438	-36.349869
187.500000	-36.105663
188.476562	-34.563854
189.453125	-37.460880
190.429688	-35.519966
191.406250	-39.125484
192.382812	-40.792953
193.359375	-41.035339
194.335938	-39.719879
195.312500	-41.118744
196.289062	-42.351421
197.265625	-44.016136
198.242188	-43.789410
199.218750	-44.103275
200.195312	-45.413410
201.171875	-46.236752
202.148438	-45.334354
203.125000	-45.793129
204.101562	-46.736290
205.078125	-47.121056
206.054688	-47.142647
207.031250	-46.834324
208.007812	-47.466911
208.984375	-48.229324
209.960938	-48.363358
210.937500	-48.492065
211.914062	-48.923725
212.890625	-48.604130
213.867188	-49.069435
214.843750	-49.061302
215.820312	-48.217487
216.796875	-48.038822
217.773438	-48.256996
218.750000	-49.615269
219.726562	-48.313591
220.703125	-49.298889
221.679688	-49.033821
222.656250	-49.165016
223.632812	-50.043007
224.609375	-49.093620
225.585938	-50.481529
226.562500	-50.029579
227.539062	-49.809898
228.515625	-50.239090
229.492188	-49.376995
230.468750	-48.673004
231.445312	-48.904579
232.421875	-50.425598
233.398438	-50.509617
234.375000	-50.854839
235.351562	-50.226456
236.328125	-50.179153
237.304688	-50.350170
238.281250	-50.943336
239.257812	-51.864777
240.234375	-51.644527
241.210938	-50.584347
242.187500	-50.721794
243.164062	-50.352238
244.140625	-50.778366
245.117188	-49.986942
246.093750	-50.271000
247.070312	-52.634521
248.046875	-52.042511
249.023438	-51.832645
250.000000	-50.642818
250.976562	-51.756859
251.953125	-52.066635
252.929688	-51.595894
253.906250	-51.498871
254.882812	-51.725658
255.859375	-52.840267
256.835938	-51.547024
257.812500	-51.629089
258.789062	-51.926403
259.765625	-51.471992
260.742188	-51.803593
261.718750	-50.861668
262.695312	-50.898556
263.671875	-51.672123
264.648438	-51.285633
265.625000	-51.528610
266.601562	-51.717873
267.578125	-52.780121
268.554688	-54.311977
269.531250	-52.535187
270.507812	-52.480007
271.484375	-51.046768
272.460938	-52.438103
273.437500	-53.057438
274.414062	-52.405037
275.390625	-51.848839
276.367188	-52.971474
277.343750	-51.873085
278.320312	-52.300999
279.296875	-51.399368
280.273438	-51.661190
281.250000	-52.453537
282.226562	-52.750751
283.203125	-51.660362
284.179688	-51.371887
285.156250	-52.480404
286.132812	-52.266666
287.109375	-52.435963
288.085938	-51.414631
289.062500	-52.368256
290.039062	-52.167160
291.015625	-51.371689
291.992188	-51.439201
292.968750	-51.708485
293.945312	-52.443317
294.921875	-51.400276
295.898438	-51.461124
296.875000	-51.865341
297.851562	-52.059204
298.828125	-52.319016
299.804688	-50.555401
300.781250	-51.205677
301.757812	-52.135487
302.734375	-51.544868
303.710938	-50.963299
304.687500	-50.485676
305.664062	-50.790413
306.640625	-50.888027
307.617188	-49.648827
308.593750	-50.470478
309.570312	-50.835991
310.546875	-50.972378
311.523438	-50.635403
312.500000	-49.779129
313.476562	-50.410389
314.453125	-50.316448
315.429688	-51.418983
316.406250	-51.128159
317.382812	-50.398273
318.359375	-51.889126
319.335938	-50.002506
320.312500	-50.021420
321.289062	-49.953007
322.265625	-50.237381
323.242188	-50.615456
324.218750	-50.786465
325.195312	-50.996147
326.171875	-50.559078
327.148438	-49.965607
328.125000	-49.581108
329.101562	-49.021255
330.078125	-49.805969
331.054688	-49.829205
332.031250	-49.715740
333.007812	-49.148132
333.984375	-49.014965
334.960938	-49.741711
335.937500	-49.160385
336.914062	-48.835537
337.890625	-49.527523
338.867188	-49.369442
339.843750	-48.469013
340.820312	-47.762634
341.796875	-48.400211
342.773438	-48.665318
343.750000	-48.370113
344.726562	-48.312103
345.703125	-48.207035
346.679688	-48.299751
347.656250	-47.599384
348.632812	-47.628620
349.609375	-47.604630
350.585938	-46.849228
351.562500	-46.456734
352.539062	-45.561703
353.515625	-45.490849
354.492188	-47.413170
355.468750	-45.877792
356.445312	-45.659737
357.421875	-45.854103
358.398438	-46.013969
359.375000	-45.077179
360.351562	-44.465477
361.328125	-44.272247
362.304688	-43.572170
363.281250	-43.216091
364.257812	-43.420124
365.234375	-42.441948
366.210938	-42.888821
367.187500	-42.007271
368.164062	-40.908203
369.140625	-40.785633
370.117188	-41.738235
371.093750	-41.416348
372.070312	-40.420380
373.046875	-37.389133
374.023438	-41.275398
375.000000	-41.267841
375.976562	-40.327835
376.953125	-40.451889
377.929688	-40.602406
378.906250	-41.520489
379.882812	-41.332577
380.859375	-40.906898
381.835938	-43.671703
382.812500	-43.753178
383.789062	-44.950333
384.765625	-44.618256
385.742188	-46.249367
386.718750	-46.956738
387.695312	-46.888016
388.671875	-46.331074
389.648438	-47.903675
390.625000	-46.451679
391.601562	-46.451000
392.578125	-47.125359
393.554688	-48.054344
394.531250	-48.324402
395.507812	-48.556442
396.484375	-47.300991
397.460938	-47.770962
398.437500	-48.386551
399.414062	-48.941082
400.390625	-48.518776
401.367188	-48.382442
402.343750	-50.413624
403.320312	-49.247654
404.296875	-48.996311
405.273438	-48.053135
406.250000	-46.500175
407.226562	-47.488876
408.203125	-46.782982
409.179688	-47.022724
410.156250	-48.158329
411.132812	-49.564922
412.109375	-49.748592
413.085938	-48.950336
414.062500	-50.002666
415.039062	-49.900585
416.015625	-49.435001
416.992188	-47.546867
417.968750	-48.620987
418.945312	-49.461071
419.921875	-50.260834
420.898438	-49.362167
421.875000	-49.688190
422.851562	-51.787216
423.828125	-50.354534
424.804688	-50.138699
425.781250	-49.311478
426.757812	-50.254356
427.734375	-50.767246
428.710938	-50.348984
429.687500	-49.554905
430.664062	-50.995392
431.640625	-49.613190
432.617188	-50.625107
433.593750	-51.071075
434.570312	-51.551823
435.546875	-51.899151
436.523438	-50.995941
437.500000	-50.642609
438.476562	-51.796173
439.453125	-51.797890
440.429688	-51.249741
441.406250	-51.419807
442.382812	-50.959606
443.359375	-51.614265
444.335938	-51.878674
445.312500	-51.425468
446.289062	-50.148441
447.265625	-51.487148
448.242188	-53.094635
449.218750	-51.649372
450.195312	-51.686089
451.171875	-52.135662
452.148438	-52.505142
453.125000	-51.078976
454.101562	-51.063877
455.078125	-52.542656
456.054688	-52.453945
457.031250	-52.147190
458.007812	-52.560596
458.984375	-51.933155
459.960938	-51.967411
460.937500	-53.137390
461.914062	-51.524185
462.890625	-52.402042
463.867188	-52.117310
464.843750	-52.063560
465.820312	-51.880455
466.796875	-50.733780
467.773438	-51.182789
468.750000	-52.906425
469.726562	-51.652401
470.703125	-51.413147
471.679688	-51.959290
472.656250	-52.337875
473.632812	-52.064064
474.609375	-52.145786
475.585938	-51.452744
476.562500	-51.966686
477.539062	-51.560173
478.515625	-51.684437
479.492188	-50.788380
480.468750	-51.372528
481.445312	-50.824711
482.421875	-50.120651
483.398438	-50.272392
484.375000	-51.600342
485.351562	-51.648323
486.328125	-50.324783
487.304688	-50.062405
488.281250	-50.056187
489.257812	-50.610378
490.234375	-50.801147
491.210938	-50.643047
492.187500	-50.173721
493.164062	-50.651810
494.140625	-49.840958
495.117188	-50.277241
496.093750	-50.217960
497.070312	-50.782188
498.046875	-49.925648
499.023438	-50.062763
500.000000	-49.899155
500.976562	-49.418823
501.953125	-49.996765
502.929688	-49.314541
503.906250	-50.100315
504.882812	-49.117405
505.859375	-49.818810
506.835938	-49.300156
507.812500	-49.971066
508.789062	-48.912632
509.765625	-48.614746
510.742188	-48.848282
511.718750	-49.296421
512.695312	-47.421291
513.671875	-46.826847
514.648438	-47.221405
515.625000	-48.296783
516.601562	-48.008728
517.578125	-47.408981
518.554688	-47.842224
519.531250	-48.154980
520.507812	-46.850563
521.484375	-46.539787
522.460938	-46.828102
523.437500	-45.998177
524.414062	-46.027546
525.390625	-45.729401
526.367188	-46.717155
527.343750	-46.049759
528.320312	-45.786755
529.296875	-45.120918
530.273438	-45.434929
531.250000	-45.254955
532.226562	-44.858925
533.203125	-44.211979
534.179688	-44.600479
535.156250	-43.856167
536.132812	-43.935226
537.109375	-43.217606
538.085938	-42.298023
539.062500	-41.970848
540.039062	-42.239265
541.015625	-42.391941
541.992188	-41.845665
542.968750	-41.134548
543.945312	-40.563873
544.921875	-39.672077
545.898438	-39.731438
546.875000	-40.282013
547.851562	-39.710148
548.828125	-37.661549
549.804688	-37.696728
550.781250	-38.279354
551.757812	-38.224300
552.734375	-37.550159
553.710938	-38.075798
554.687500	-38.417171
555.664062	-38.171135
556.640625	-37.730869
557.617188	-37.972015
558.593750	-38.441898
559.570312	-36.818150
560.546875	-37.713711
561.523438	-37.522408
562.500000	-37.774944
563.476562	-35.828014
564.453125	-38.592937
565.429688	-39.880024
566.406250	-40.247894
567.382812	-39.642372
568.359375	-39.827118
569.335938	-38.965424
570.312500	-40.512798
571.289062	-38.925785
572.265625	-40.805325
573.242188	-41.677620
574.218750	-41.730305
575.195312	-42.977406
576.171875	-42.220947
577.148438	-42.705315
578.125000	-44.638966
579.101562	-43.814049
580.078125	-43.612415
581.054688	-45.058064
582.031250	-44.867447
583.007812	-45.958607
583.984375	-45.528240
584.960938	-44.937786
585.937500	-45.593983
586.914062	-46.066460
587.890625	-46.806858
588.867188	-47.352749
589.843750	-47.845966
590.820312	-47.527878
591.796875	-48.380775
592.773438	-48.867859
593.750000	-47.934032
594.726562	-49.355209
595.703125	-47.053818
596.679688	-46.410431
597.656250	-48.058117
598.632812	-49.030083
599.609375	-48.433170
600.585938	-48.007210
601.562500	-48.277176
602.539062	-49.341801
603.515625	-49.351887
604.492188	-48.438858
605.468750	-49.176987
606.445312	-49.573021
607.421875	-49.056740
608.398438	-49.198811
609.375000	-49.595467
610.351562	-49.141296
611.328125	-49.710579
612.304688	-50.056679
613.281250	-49.215298
614.257812	-50.199326
615.234375	-49.457268
616.210938	-49.607460
617.187500	-49.259247
618.164062	-49.445534
619.140625	-49.960907
620.117188	-49.319107
621.093750	-49.210037
622.070312	-49.409855
623.046875	-50.332134
624.023438	-50.389782
625.000000	-49.761543
625.976562	-49.411808
626.953125	-48.724789
627.929688	-49.698738
628.906250	-49.865913
629.882812	-50.204330
630.859375	-50.280701
631.835938	-50.531181
632.812500	-50.379574
633.789062	-50.400875
634.765625	-50.478168
635.742188	-49.637634
636.718750	-49.542717
637.695312	-50.542648
638.671875	-50.454144
639.648438	-50.373653
640.625000	-50.452038
641.601562	-51.553440
642.578125	-50.633720
643.554688	-51.034782
644.531250	-51.344017
645.507812	-51.370548
646.484375	-50.268520
647.460938	-51.901962
648.437500	-50.554787
649.414062	-50.343746
650.390625	-49.842846
651.367188	-50.954453
652.343750	-51.220398
653.320312	-50.761765
654.296875	-50.688545
655.273438	-49.605713
656.250000	-49.542229
657.226562	-51.041855
658.203125	-51.612934
659.179688	-50.074978
660.156250	-49.868320
661.132812	-49.589176
662.109375	-48.586559
663.085938	-49.669079
664.062500	-51.478230
665.039062	-48.861290
666.015625	-48.972675
666.992188	-50.390900
667.968750	-50.041801
668.945312	-49.492928
669.921875	-48.320461
670.898438	-48.484455
671.875000	-48.718651
672.851562	-48.359406
673.828125	-48.328007
674.804688	-48.239342
675.781250	-47.756729
676.757812	-47.185162
677.734375	-47.113331
678.710938	-48.810524
679.687500	-46.798981
680.664062	-46.921028
681.640625	-46.869656
682.617188	-46.542336
683.593750	-47.678520
684.570312	-47.216660
685.546875	-46.393749
686.523438	-46.644119
687.500000	-46.390934
688.476562	-46.141758
689.453125	-46.651905
690.429688	-45.204624
691.406250	-44.702633
692.382812	-45.800888
693.359375	-44.454411
694.335938	-43.098392
695.312500	-42.979370
696.289062	-43.591694
697.265625	-43.099766
698.242188	-43.059204
699.218750	-42.951820
700.195312	-42.136959
701.171875	-41.047672
702.148438	-41.588757
703.125000	-40.191143
704.101562	-40.790699
705.078125	-40.183357
706.054688	-39.377075
707.031250	-39.518143
708.007812	-40.087872
708.984375	-38.179989
709.960938	-37.955486
710.937500	-38.859131
711.914062	-39.817238
712.890625	-39.861027
713.867188	-37.968643
714.843750	-37.699184
715.820312	-38.388653
716.796875	-37.430149
717.773438	-36.288841
718.750000	-37.181499
719.726562	-37.006584
720.703125	-36.285797
721.679688	-35.142006
722.656250	-36.126076
723.632812	-35.211323
724.609375	-35.401814
725.585938	-35.207779
726.562500	-34.010750
727.539062	-35.635418
728.515625	-34.620144
729.492188	-33.251541
730.468750	-33.500462
731.445312	-33.908981
732.421875	-32.840298
733.398438	-33.155025
734.375000	-33.009281
735.351562	-33.180996
736.328125	-32.844288
737.304688	-32.377201
738.281250	-32.683697
739.257812	-32.128971
740.234375	-32.736687
741.210938	-32.099792
742.187500	-33.391037
743.164062	-32.266140
744.140625	-32.822422
745.117188	-33.935673
746.093750	-33.864658
747.070312	-34.144894
748.046875	-32.813210
749.023438	-33.960773
750.000000	-33.965275
750.976562	-34.608524
751.953125	-33.874374
752.929688	-34.210701
753.906250	-35.905338
754.882812	-34.596333
755.859375	-35.072422
756.835938	-34.307301
757.812500	-34.792763
758.789062	-35.037083
759.765625	-35.414639
760.742188	-35.692356
761.718750	-35.866928
762.695312	-36.823299
763.671875	-37.354168
764.648438	-35.903893
765.625000	-36.648804
766.601562	-38.226128
767.578125	-37.254242
768.554688	-37.984364
769.531250	-38.045582
770.507812	-37.627026
771.484375	-38.537464
772.460938	-39.255730
773.437500	-39.212395
774.414062	-37.395447
775.390625	-40.451099
776.367188	-40.147839
777.343750	-39.448193
778.320312	-39.934177
779.296875	-41.056683
780.273438	-41.454597
781.250000	-42.147327
782.226562	-40.510334
783.203125	-42.568310
784.179688	-41.655762
785.156250	-43.641708
786.132812	-42.105949
787.109375	-43.837025
788.085938	-43.496170
789.062500	-43.495502
790.039062	-42.910683
791.015625	-43.702015
791.992188	-44.718746
792.968750	-45.037193
793.945312	-46.069580
794.921875	-44.753632
795.898438	-45.583981
796.875000	-44.899445
797.851562	-47.022915
798.828125	-46.202843
799.804688	-45.765465
800.781250	-45.476887
801.757812	-47.414684
802.734375	-45.194954
803.710938	-46.373486
804.687500	-45.723320
805.664062	-46.601475
806.640625	-46.347805
807.617188	-46.690861
808.593750	-46.534790
809.570312	-46.691067
810.546875	-46.303276
811.523438	-45.892719
812.500000	-47.035095
813.476562	-46.646469
814.453125	-47.356804
815.429688	-46.672859
816.406250	-45.977833
817.382812	-48.715420
818.359375	-47.211346
819.335938	-46.355949
820.312500	-47.547050
821.289062	-47.797649
822.265625	-48.016685
823.242188	-46.969593
824.218750	-47.641708
825.195312	-47.016453
826.171875	-47.606979
827.148438	-48.380932
828.125000	-47.779228
829.101562	-48.455509
830.078125	-48.087154
831.054688	-47.595066
832.031250	-46.089622
833.007812	-48.169144
833.984375	-47.833061
834.960938	-47.074871
835.937500	-48.181137
836.914062	-46.464024
837.890625	-47.810108
838.867188	-46.846138
839.843750	-47.869545
840.820312	-45.895710
841.796875	-46.688347
842.773438	-46.939274
843.750000	-46.129189
844.726562	-46.201084
845.703125	-47.552635
846.679688	-46.687706
847.656250	-45.322208
848.632812	-46.112434
849.609375	-46.406597
850.585938	-46.333839
851.562500	-45.585888
852.539062	-44.664597
853.515625	-43.957783
854.492188	-44.811146
855.468750	-42.037556
856.445312	-41.506878
857.421875	-42.906620
858.398438	-43.519997
859.375000	-41.929317
860.351562	-39.912182
861.328125	-40.506626
862.304688	-41.599564
863.281250	-38.521378
864.257812	-39.513264
865.234375	-38.938442
866.210938	-38.131992
867.187500	-36.633709
868.164062	-38.684849
869.140625	-36.352455
870.117188	-35.445137
871.093750	-35.683704
872.070312	-35.820923
873.046875	-35.513947
874.023438	-35.335915
875.000000	-35.740810
875.976562	-33.269981
876.953125	-34.171413
877.929688	-34.539585
878.906250	-34.500244
879.882812	-31.659031
880.859375	-30.921333
881.835938	-31.965355
882.812500	-34.868526
883.789062	-34.073429
884.765625	-32.279854
885.742188	-31.483913
886.718750	-32.254921
887.695312	-31.116425
888.671875	-30.480886
889.648438	-30.599358
890.625000	-28.565514
891.601562	-28.148428
892.578125	-29.804976
893.554688	-30.948572
894.531250	-28.921331
895.507812	-26.973360
896.484375	-27.753447
897.460938	-28.337856
898.437500	-26.784220
899.414062	-27.208799
900.390625	-28.401934
901.367188	-26.663200
902.343750	-26.310638
903.320312	-25.496235
904.296875	-26.837803
905.273438	-26.843508
906.250000	-25.771599
907.226562	-26.607550
908.203125	-25.117548
909.179688	-26.376875
910.156250	-25.528763
911.132812	-24.448727
912.109375	-25.022350
913.085938	-24.928774
914.062500	-25.195372
915.039062	-25.370577
916.015625	-25.956448
916.992188	-25.296461
917.968750	-25.037338
918.945312	-24.324945
919.921875	-25.160809
920.898438	-24.358261
921.875000	-26.061337
922.851562	-24.917664
923.828125	-25.075071
924.804688	-25.302437
925.781250	-25.424501
926.757812	-25.618750
927.734375	-25.127048
928.710938	-26.850626
929.687500	-24.700865
930.664062	-25.044365
931.640625	-25.288513
932.617188	-25.547613
933.593750	-25.875196
934.570312	-24.523397
935.546875	-25.093136
936.523438	-26.773735
937.500000	-25.695137
938.476562	-26.112307
939.453125	-25.619976
940.429688	-25.722330
941.406250	-26.716972
942.382812	-25.123676
943.359375	-25.317314
944.335938	-27.561543
945.312500	-26.995741
946.289062	-27.469963
947.265625	-27.209887
948.242188	-27.257528
949.218750	-27.867634
950.195312	-29.156322
951.171875	-26.592020
952.148438	-29.432703
953.125000	-29.250801
954.101562	-28.370275
955.078125	-27.492300
956.054688	-29.698141
957.031250	-28.580923
958.007812	-29.658365
958.984375	-28.410736
959.960938	-27.915604
960.937500	-29.503931
961.914062	-29.813110
962.890625	-29.451408
963.867188	-30.610508
964.843750	-28.613203
965.820312	-28.939735
966.796875	-29.418201
967.773438	-30.268465
968.750000	-29.400749
969.726562	-29.951357
970.703125	-28.516987
971.679688	-29.765123
972.656250	-30.281149
973.632812	-29.716286
974.609375	-29.788752
975.585938	-29.497330
976.562500	-30.405474
977.539062	-32.277660
978.515625	-29.866919
979.492188	-31.383537
980.468750	-29.511122
981.445312	-33.274879
982.421875	-33.048866
983.398438	-31.841103
984.375000	-32.889614
985.351562	-34.362331
986.328125	-33.253098
987.304688	-35.282181
988.281250	-33.676422
989.257812	-35.890091
990.234375	-35.077572
991.210938	-36.312386
992.187500	-36.184372
993.164062	-37.050629
994.140625	-38.995987
995.117188	-37.891884
996.093750	-39.781036
997.070312	-40.838974
998.046875	-40.903419
999.023438	-40.890308
1000.000000	-41.249340
1000.976562	-42.941799
1001.953125	-42.670120
1002.929688	-43.356304
1003.906250	-43.063580
1004.882812	-42.937180
1005.859375	-43.229992
1006.835938	-44.048080
1007.812500	-42.238216
1008.789062	-44.216549
1009.765625	-44.783802
1010.742188	-43.624126
1011.718750	-44.446068
1012.695312	-44.071705
1013.671875	-43.511703
1014.648438	-43.210457
1015.625000	-42.868004
1016.601562	-44.649174
1017.578125	-42.732037
1018.554688	-43.834507
1019.531250	-44.011189
1020.507812	-42.869049
1021.484375	-42.388161
1022.460938	-41.876911
1023.437500	-43.787186
1024.414062	-44.059517
1025.390625	-42.110134
1026.367188	-43.150879
1027.343750	-43.478893
1028.320312	-43.624477
1029.296875	-40.419144
1030.273438	-38.806816
1031.250000	-39.216072
1032.226562	-41.102512
1033.203125	-42.999672
1034.179688	-42.108196
1035.156250	-41.644054
1036.132812	-39.553734
1037.109375	-38.588707
1038.085938	-42.569920
1039.062500	-44.286800
1040.039062	-42.234489
1041.015625	-40.657600
1041.992188	-37.926571
1042.968750	-37.688801
1043.945312	-37.851734
1044.921875	-38.550255
1045.898438	-37.957577
1046.875000	-38.129936
1047.851562	-39.824707
1048.828125	-39.664314
1049.804688	-38.495792
1050.781250	-37.754936
1051.757812	-37.322109
1052.734375	-37.948952
1053.710938	-37.749924
1054.687500	-35.026520
1055.664062	-35.612808
1056.640625	-35.804436
1057.617188	-34.454166
1058.593750	-34.909016
1059.570312	-35.172363
1060.546875	-35.223808
1061.523438	-34.544224
1062.500000	-34.521122
1063.476562	-34.001076
1064.453125	-33.547131
1065.429688	-33.709694
1066.406250	-33.532005
1067.382812	-32.651524
1068.359375	-32.679405
1069.335938	-32.856953
1070.312500	-32.224926
1071.289062	-32.908344
1072.265625	-32.219597
1073.242188	-31.930027
1074.218750	-32.004879
1075.195312	-31.924768
1076.171875	-30.127932
1077.148438	-29.911510
1078.125000	-30.143887
1079.101562	-29.579535
1080.078125	-27.255186
1081.054688	-24.562191
1082.031250	-25.581448
1083.007812	-25.605965
1083.984375	-27.230255
1084.960938	-26.617849
1085.937500	-27.764254
1086.914062	-25.790775
1087.890625	-25.536501
1088.867188	-26.522331
1089.843750	-27.326283
1090.820312	-27.301853
1091.796875	-26.697067
1092.773438	-26.867626
1093.750000	-26.558662
1094.726562	-25.466028
1095.703125	-24.940968
1096.679688	-25.970736
1097.656250	-26.259939
1098.632812	-25.966175
1099.609375	-25.536232
1100.585938	-24.577293
1101.562500	-24.726950
1102.539062	-24.268461
1103.515625	-23.758442
1104.492188	-23.763453
1105.468750	-24.092604
1106.445312	-23.776920
1107.421875	-24.000099
1108.398438	-22.238165
1109.375000	-23.396370
1110.351562	-22.746246
1111.328125	-22.470297
1112.304688	-21.972733
1113.281250	-22.255289
1114.257812	-23.862843
1115.234375	-23.696196
1116.210938	-23.339018
1117.187500	-22.438951
1118.164062	-21.811436
1119.140625	-23.966461
1120.117188	-26.448195
1121.093750	-25.149458
1122.070312	-24.605467
1123.046875	-25.975878
1124.023438	-26.370611
1125.000000	-26.641157
1125.976562	-26.608654
1126.953125	-27.264523
1127.929688	-26.882635
1128.906250	-26.710123
1129.882812	-26.558336
1130.859375	-27.183910
1131.835938	-27.700127
1132.812500	-28.034834
1133.789062	-26.955244
1134.765625	-26.422853
1135.742188	-27.503790
1136.718750	-28.341391
1137.695312	-28.875776
1138.671875	-28.701626
1139.648438	-28.936958
1140.625000	-29.320889
1141.601562	-28.860224
1142.578125	-27.748446
1143.554688	-29.246862
1144.531250	-28.638609
1145.507812	-28.345692
1146.484375	-30.024714
1147.460938	-30.006210
1148.437500	-29.700590
1149.414062	-28.948273
1150.390625	-29.199060
1151.367188	-29.772202
1152.343750	-28.634329
1153.320312	-29.921900
1154.296875	-30.858683
1155.273438	-30.369795
1156.250000	-30.342426
1157.226562	-28.196722
1158.203125	-29.983160
1159.179688	-29.906647
1160.156250	-30.499887
1161.132812	-30.852589
1162.109375	-30.012657
1163.085938	-30.717516
1164.062500	-30.009260
1165.039062	-29.525457
1166.015625	-30.493912
1166.992188	-31.070869
1167.968750	-30.216022
1168.945312	-30.314112
1169.921875	-29.927528
1170.898438	-32.100563
1171.875000	-31.223272
1172.851562	-29.063971
1173.828125	-31.238960
1174.804688	-30.957886
1175.781250	-32.976856
1176.757812	-29.905907
1177.734375	-32.001484
1178.710938	-31.935129
1179.687500	-29.759434
1180.664062	-32.533657
1181.640625	-33.623840
1182.617188	-33.039494
1183.593750	-33.865662
1184.570312	-35.626934
1185.546875	-32.105446
1186.523438	-33.425209
1187.500000	-35.242443
1188.476562	-37.174183
1189.453125	-36.704411
1190.429688	-35.153870
1191.406250	-34.896938
1192.382812	-37.174316
1193.359375	-41.515442
1194.335938	-38.256710
1195.312500	-38.890293
1196.289062	-37.797215
1197.265625	-38.867577
1198.242188	-42.323658
1199.218750	-42.421665
1200.195312	-41.073673
1201.171875	-42.073143
1202.148438	-44.927799
1203.125000	-44.140945
1204.101562	-43.729622
1205.078125	-43.466068
1206.054688	-44.390820
1207.031250	-43.899578
1208.007812	-44.516541
1208.984375	-45.136314
1209.960938	-43.939106
1210.937500	-42.820599
1211.914062	-44.557739
1212.890625	-45.806545
1213.867188	-44.807499
1214.843750	-43.645519
1215.820312	-44.408390
1216.796875	-43.376404
1217.773438	-46.051666
1218.750000	-45.875172
1219.726562	-43.529892
1220.703125	-45.167801
1221.679688	-43.778858
1222.656250	-43.299038
1223.632812	-44.765217
1224.609375	-44.664093
1225.585938	-43.643776
1226.562500	-43.954674
1227.539062	-43.801136
1228.515625	-44.931461
1229.492188	-43.865582
1230.468750	-44.098476
1231.445312	-42.413532
1232.421875	-42.689938
1233.398438	-43.541332
1234.375000	-43.161274
1235.351562	-43.279484
1236.328125	-43.495857
1237.304688	-41.886326
1238.281250	-41.799564
1239.257812	-43.664234
1240.234375	-41.895241
1241.210938	-42.896576
1242.187500	-42.495106
1243.164062	-41.390831
1244.140625	-43.117130
1245.117188	-43.591946
1246.093750	-41.545532
1247.070312	-41.401127
1248.046875	-43.172802
1249.023438	-42.889030
1250.000000	-42.852753
1250.976562	-41.042625
1251.953125	-43.236889
1252.929688	-42.508667
1253.906250	-40.931000
1254.882812	-41.718563
1255.859375	-42.942665
1256.835938	-41.128990
1257.812500	-39.735069
1258.789062	-40.632656
1259.765625	-41.682571
1260.742188	-40.006359
1261.718750	-39.029404
1262.695312	-40.491520
1263.671875	-40.645264
1264.648438	-38.921158
1265.625000	-37.828007
1266.601562	-38.402447
1267.578125	-38.354767
1268.554688	-38.323730
1269.531250	-36.742649
1270.507812	-38.024063
1271.484375	-38.501022
1272.460938	-36.419552
1273.437500	-35.955410
1274.414062	-37.784760
1275.390625	-37.448292
1276.367188	-35.769100
1277.343750	-36.364208
1278.320312	-36.809555
1279.296875	-36.445618
1280.273438	-34.197151
1281.250000	-33.294952
1282.226562	-35.625591
1283.203125	-34.504311
1284.179688	-33.181625
1285.156250	-33.085056
1286.132812	-33.324268
1287.109375	-34.108551
1288.085938	-34.208683
1289.062500	-32.662086
1290.039062	-33.854847
1291.015625	-33.757240
1291.992188	-32.880341
1292.968750	-32.879704
1293.945312	-33.678280
1294.921875	-33.899502
1295.898438	-33.412212
1296.875000	-32.655373
1297.851562	-32.282120
1298.828125	-33.083942
1299.804688	-32.758698
1300.781250	-32.897518
1301.757812	-32.235474
1302.734375	-32.649044
1303.710938	-32.682316
1304.687500	-33.797615
1305.664062	-33.605923
1306.640625	-32.861698
1307.617188	-33.700325
1308.593750	-34.196041
1309.570312	-33.505234
1310.546875	-34.135120
1311.523438	-34.232929
1312.500000	-34.991653
1313.476562	-34.607002
1314.453125	-34.277122
1315.429688	-35.569683
1316.406250	-35.303165
1317.382812	-33.971375
1318.359375	-35.274628
1319.335938	-35.817989
1320.312500	-36.047485
1321.289062	-36.236134
1322.265625	-35.638760
1323.242188	-37.574905
1324.218750	-37.776268
1325.195312	-36.444397
1326.171875	-37.305244
1327.148438	-37.001778
1328.125000	-38.617573
1329.101562	-38.090626
1330.078125	-37.372337
1331.054688	-38.388828
1332.031250	-39.824261
1333.007812	-38.647938
1333.984375	-38.784836
1334.960938	-39.150845
1335.937500	-40.088558
1336.914062	-40.339680
1337.890625	-39.401604
1338.867188	-39.412212
1339.843750	-41.847858
1340.820312	-40.909325
1341.796875	-40.919411
1342.773438	-40.807972
1343.750000	-40.943638
1344.726562	-41.439476
1345.703125	-42.058922
1346.679688	-41.185356
1347.656250	-41.188869
1348.632812	-42.888767
1349.609375	-42.209797
1350.585938	-41.064785
1351.562500	-42.113007
1352.539062	-44.330044
1353.515625	-42.865196
1354.492188	-42.190804
1355.468750	-42.741917
1356.445312	-42.942131
1357.421875	-43.168724
1358.398438	-42.589096
1359.375000	-44.054726
1360.351562	-44.546947
1361.328125	-44.639313
1362.304688	-42.744068
1363.281250	-44.555294
1364.257812	-43.069828
1365.234375	-43.340916
1366.210938	-44.062798
1367.187500	-43.685951
1368.164062	-43.962612
1369.140625	-44.275669
1370.117188	-42.911312
1371.093750	-44.685272
1372.070312	-43.983696
1373.046875	-43.951481
1374.023438	-43.528172
1375.000000	-46.483711
1375.976562	-45.353180
1376.953125	-44.619602
1377.929688	-45.744255
1378.906250	-46.050529
1379.882812	-44.688686
1380.859375	-44.777721
1381.835938	-46.078270
1382.812500	-47.006901
1383.789062	-46.498024
1384.765625	-45.329548
1385.742188	-46.095894
1386.718750	-46.551422
1387.695312	-46.238377
1388.671875	-46.564686
1389.648438	-46.887268
1390.625000	-46.700127
1391.601562	-47.647503
1392.578125	-46.715317
1393.554688	-46.665138
1394.531250	-47.318352
1395.507812	-47.434845
1396.484375	-46.050175
1397.460938	-46.962799
1398.437500	-47.407936
1399.414062	-47.457241
1400.390625	-47.074715
1401.367188	-46.182793
1402.343750	-46.751740
1403.320312	-46.027248
1404.296875	-47.509167
1405.273438	-46.212238
1406.250000	-47.106045
1407.226562	-47.482281
1408.203125	-48.772633
1409.179688	-47.888409
1410.156250	-47.126625
1411.132812	-46.940769
1412.109375	-48.163063
1413.085938	-48.049232
1414.062500	-47.857918
1415.039062	-47.279156
1416.015625	-47.674465
1416.992188	-48.126064
1417.968750	-47.663261
1418.945312	-47.406113
1419.921875	-47.047733
1420.898438	-46.637135
1421.875000	-46.740589
1422.851562	-46.227280
1423.828125	-46.946404
1424.804688	-46.123390
1425.781250	-45.902943
1426.757812	-47.072823
1427.734375	-46.701855
1428.710938	-46.177280
1429.687500	-47.959019
1430.664062	-46.867630
1431.640625	-46.979229
1432.617188	-46.411983
1433.593750	-47.252968
1434.570312	-47.072624
1435.546875	-46.369961
1436.523438	-46.239311
1437.500000	-46.060593
1438.476562	-45.365665
1439.453125	-44.555222
1440.429688	-44.434464
1441.406250	-45.664341
1442.382812	-45.969379
1443.359375	-46.119267
1444.335938	-44.993423
1445.312500	-45.413319
1446.289062	-44.469826
1447.265625	-44.156639
1448.242188	-43.795448
1449.218750	-44.478897
1450.195312	-42.652718
1451.171875	-43.779762
1452.148438	-43.148830
1453.125000	-43.774780
1454.101562	-43.875450
1455.078125	-43.331017
1456.054688	-43.239735
1457.031250	-43.614380
1458.007812	-42.008446
1458.984375	-42.103958
1459.960938	-41.534649
1460.937500	-41.515461
1461.914062	-41.896950
1462.890625	-42.686527
1463.867188	-41.560936
1464.843750	-41.855614
1465.820312	-39.906441
1466.796875	-41.431507
1467.773438	-40.717915
1468.750000	-40.125874
1469.726562	-40.008942
1470.703125	-40.268051
1471.679688	-39.621643
1472.656250	-39.544945
1473.632812	-39.185921
1474.609375	-40.281895
1475.585938	-40.513454
1476.562500	-39.349892
1477.539062	-40.649120
1478.515625	-39.708904
1479.492188	-38.431736
1480.468750	-38.204159
1481.445312	-39.068062
1482.421875	-39.344730
1483.398438	-38.838364
1484.375000	-39.883877
1485.351562	-39.060009
1486.328125	-39.608940
1487.304688	-39.464771
1488.281250	-39.207165
1489.257812	-39.626770
1490.234375	-38.644463
1491.210938	-39.319958
1492.187500	-39.274887
1493.164062	-39.310215
1494.140625	-39.145439
1495.117188	-39.951168
1496.093750	-39.286865
1497.070312	-39.783611
1498.046875	-39.415482
1499.023438	-39.448997
1500.000000	-38.303566
1500.976562	-40.346928
1501.953125	-39.429260
1502.929688	-40.465477
1503.906250	-41.145111
1504.882812	-41.140537
1505.859375	-41.187817
1506.835938	-41.948750
1507.812500	-42.313263
1508.789062	-42.355354
1509.765625	-41.757641
1510.742188	-41.705250
1511.718750	-43.713108
1512.695312	-43.136116
1513.671875	-43.419456
1514.648438	-42.781513
1515.625000	-43.495811
1516.601562	-42.970528
1517.578125	-44.852867
1518.554688	-44.960964
1519.531250	-43.371082
1520.507812	-44.082939
1521.484375	-44.281796
1522.460938	-45.386929
1523.437500	-45.362453
1524.414062	-44.902824
1525.390625	-44.462189
1526.367188	-45.231972
1527.343750	-46.146816
1528.320312	-46.318176
1529.296875	-45.842743
1530.273438	-45.997864
1531.250000	-46.727806
1532.226562	-47.432911
1533.203125	-47.570934
1534.179688	-46.277321
1535.156250	-46.225403
1536.132812	-45.734226
1537.109375	-46.978973
1538.085938	-47.089306
1539.062500	-46.675884
1540.039062	-46.817146
1541.015625	-47.289021
1541.992188	-47.704483
1542.968750	-48.120815
1543.945312	-47.940125
1544.921875	-47.282734
1545.898438	-46.279724
1546.875000	-46.671700
1547.851562	-47.719986
1548.828125	-48.139492
1549.804688	-47.480846
1550.781250	-47.518642
1551.757812	-48.377567
1552.734375	-47.584965
1553.710938	-46.957474
1554.687500	-47.828606
1555.664062	-47.142769
1556.640625	-47.079254
1557.617188	-47.971600
1558.593750	-48.011444
1559.570312	-47.828415
1560.546875	-47.973980
1561.523438	-48.286060
1562.500000	-48.405563
1563.476562	-48.198200
1564.453125	-48.240044
1565.429688	-47.924904
1566.406250	-48.209423
1567.382812	-48.384354
1568.359375	-47.871845
1569.335938	-48.369858
1570.312500	-48.913776
1571.289062	-48.319004
1572.265625	-48.585529
1573.242188	-46.728664
1574.218750	-48.327663
1575.195312	-48.725418
1576.171875	-48.772644
1577.148438	-49.202511
1578.125000	-48.501595
1579.101562	-48.787685
1580.078125	-47.940067
1581.054688	-48.440857
1582.031250	-49.450680
1583.007812	-50.402737
1583.984375	-49.292469
1584.960938	-48.847099
1585.937500	-48.191517
1586.914062	-49.281082
1587.890625	-49.661865
1588.867188	-49.295773
1589.843750	-50.133003
1590.820312	-50.041241
1591.796875	-50.035526
1592.773438	-50.288242
1593.750000	-48.895702
1594.726562	-49.976883
1595.703125	-50.042896
1596.679688	-49.688484
1597.656250	-48.647629
1598.632812	-50.031738
1599.609375	-50.314674
1600.585938	-49.513615
1601.562500	-48.951614
1602.539062	-49.381054
1603.515625	-48.924057
1604.492188	-50.480324
1605.468750	-49.082569
1606.445312	-49.844784
1607.421875	-49.663086
1608.398438	-50.208260
1609.375000	-48.831676
1610.351562	-49.464596
1611.328125	-49.293819
1612.304688	-48.112255
1613.281250	-49.833889
1614.257812	-49.077831
1615.234375	-49.067745
1616.210938	-49.542408
1617.187500	-49.110638
1618.164062	-49.456028
1619.140625	-48.538254
1620.117188	-48.289646
1621.093750	-48.031895
1622.070312	-48.972855
1623.046875	-48.099075
1624.023438	-48.147449
1625.000000	-48.284794
1625.976562	-47.687542
1626.953125	-47.508492
1627.929688	-47.313923
1628.906250	-47.666107
1629.882812	-47.674194
1630.859375	-47.766056
1631.835938	-47.705471
1632.812500	-47.491322
1633.789062	-46.530628
1634.765625	-46.575703
1635.742188	-46.744392
1636.718750	-47.486244
1637.695312	-47.609447
1638.671875	-46.316017
1639.648438	-46.885712
1640.625000	-46.238419
1641.601562	-45.175056
1642.578125	-45.458321
1643.554688	-46.206398
1644.531250	-45.828278
1645.507812	-45.156982
1646.484375	-45.521320
1647.460938	-45.613831
1648.437500	-45.722969
1649.414062	-44.627140
1650.390625	-45.111732
1651.367188	-45.241302
1652.343750	-43.910015
1653.320312	-43.862030
1654.296875	-44.925335
1655.273438	-43.522102
1656.250000	-43.968784
1657.226562	-43.331928
1658.203125	-44.074760
1659.179688	-43.204048
1660.156250	-42.531826
1661.132812	-42.823765
1662.109375	-43.629513
1663.085938	-42.165203
1664.062500	-43.228611
1665.039062	-42.927612
1666.015625	-43.113464
1666.992188	-43.312065
1667.968750	-41.951939
1668.945312	-42.213745
1669.921875	-42.487186
1670.898438	-42.369205
1671.875000	-42.074883
1672.851562	-41.805836
1673.828125	-43.212688
1674.804688	-42.679585
1675.781250	-42.775990
1676.757812	-42.829849
1677.734375	-44.041157
1678.710938	-42.930500
1679.687500	-43.151939
1680.664062	-43.297565
1681.640625	-43.308239
1682.617188	-42.751587
1683.593750	-42.710697
1684.570312	-43.627247
1685.546875	-43.372738
1686.523438	-42.890114
1687.500000	-42.686737
1688.476562	-43.559673
1689.453125	-43.890327
1690.429688	-45.271782
1691.406250	-44.319656
1692.382812	-45.164062
1693.359375	-44.986042
1694.335938	-45.168438
1695.312500	-44.353306
1696.289062	-45.131393
1697.265625	-45.886742
1698.242188	-46.040031
1699.218750	-45.697460
1700.195312	-46.434433
1701.171875	-46.164371
1702.148438	-46.086712
1703.125000	-45.469223
1704.101562	-46.060352
1705.078125	-45.982826
1706.054688	-46.463146
1707.031250	-46.411533
1708.007812	-47.775440
1708.984375	-47.763687
1709.960938	-47.302265
1710.937500	-47.217190
1711.914062	-47.899654
1712.890625	-48.404907
1713.867188	-48.227417
1714.843750	-47.161507
1715.820312	-48.064533
1716.796875	-48.213211
1717.773438	-48.570724
1718.750000	-48.997406
1719.726562	-49.464588
1720.703125	-49.425117
1721.679688	-48.711491
1722.656250	-48.369808
1723.632812	-48.638496
1724.609375	-49.075706
1725.585938	-49.230576
1726.562500	-49.167133
1727.539062	-48.567055
1728.515625	-49.494686
1729.492188	-49.309307
1730.468750	-48.545284
1731.445312	-49.022655
1732.421875	-49.441242
1733.398438	-49.034000
1734.375000	-49.635605
1735.351562	-48.400208
1736.328125	-49.186493
1737.304688	-49.140240
1738.281250	-49.430695
1739.257812	-49.040180
1740.234375	-49.673256
1741.210938	-49.992908
1742.187500	-50.540112
1743.164062	-49.036919
1744.140625	-48.316845
1745.117188	-48.791370
1746.093750	-49.824421
1747.070312	-50.504982
1748.046875	-48.802616
1749.023438	-50.192097
1750.000000	-49.391071
1750.976562	-49.713173
1751.953125	-49.281265
1752.929688	-48.856609
1753.906250	-50.747883
1754.882812	-50.258873
1755.859375	-49.695316
1756.835938	-48.184029
1757.812500	-49.486649
1758.789062	-49.806744
1759.765625	-49.779751
1760.742188	-49.833855
1761.718750	-49.882141
1762.695312	-50.212494
1763.671875	-49.675961
1764.648438	-49.057335
1765.625000	-48.407104
1766.601562	-49.069103
1767.578125	-50.720417
1768.554688	-48.996983
1769.531250	-50.249180
1770.507812	-50.507069
1771.484375	-50.000542
1772.460938	-50.460716
1773.437500	-50.506615
1774.414062	-50.128696
1775.390625	-50.397190
1776.367188	-49.560017
1777.343750	-49.694180
1778.320312	-49.178230
1779.296875	-50.882568
1780.273438	-50.180519
1781.250000	-50.798916
1782.226562	-50.293304
1783.203125	-51.098297
1784.179688	-50.169903
1785.156250	-51.367519
1786.132812	-50.406326
1787.109375	-50.419643
1788.085938	-49.985893
1789.062500	-50.187420
1790.039062	-50.082584
1791.015625	-49.436886
1791.992188	-50.443382
1792.968750	-49.848141
1793.945312	-50.419216
1794.921875	-50.262199
1795.898438	-49.560127
1796.875000	-49.685417
1797.851562	-49.600739
1798.828125	-50.014984
1799.804688	-49.929680
1800.781250	-48.705936
1801.757812	-48.375160
1802.734375	-48.402832
1803.710938	-48.826698
1804.687500	-49.562668
1805.664062	-48.692677
1806.640625	-49.026711
1807.617188	-47.991741
1808.593750	-48.844059
1809.570312	-48.510387
1810.546875	-48.304893
1811.523438	-48.100864
1812.500000	-48.293522
1813.476562	-48.126995
1814.453125	-48.779984
1815.429688	-48.490471
1816.406250	-48.364723
1817.382812	-47.826416
1818.359375	-48.371315
1819.335938	-47.569759
1820.312500	-47.253365
1821.289062	-46.883614
1822.265625	-47.579540
1823.242188	-47.648548
1824.218750	-47.002922
1825.195312	-48.033279
1826.171875	-47.690052
1827.148438	-46.565739
1828.125000	-46.536488
1829.101562	-46.126846
1830.078125	-47.040344
1831.054688	-46.422707
1832.031250	-46.839493
1833.007812	-45.837215
1833.984375	-45.891376
1834.960938	-44.951359
1835.937500	-45.566593
1836.914062	-46.920082
1837.890625	-45.816917
1838.867188	-45.373302
1839.843750	-45.769157
1840.820312	-44.488720
1841.796875	-44.175137
1842.773438	-44.473591
1843.750000	-44.873470
1844.726562	-45.311440
1845.703125	-44.117813
1846.679688	-44.654984
1847.656250	-45.567596
1848.632812	-44.022724
1849.609375	-43.349392
1850.585938	-43.820446
1851.562500	-44.855064
1852.539062	-44.941532
1853.515625	-45.446060
1854.492188	-44.014023
1855.468750	-43.961163
1856.445312	-44.192299
1857.421875	-44.244965
1858.398438	-43.862949
1859.375000	-45.260376
1860.351562	-44.366081
1861.328125	-42.976875
1862.304688	-43.570923
1863.281250	-44.813408
1864.257812	-43.943836
1865.234375	-43.574940
1866.210938	-43.126942
1867.187500	-44.017483
1868.164062	-45.523880
1869.140625	-43.887711
1870.117188	-44.888424
1871.093750	-45.056946
1872.070312	-44.376316
1873.046875	-45.522404
1874.023438	-45.362877
1875.000000	-45.540577
1875.976562	-46.002808
1876.953125	-46.061977
1877.929688	-45.808895
1878.906250	-45.125771
1879.882812	-46.363708
1880.859375	-47.133125
1881.835938	-46.948452
1882.812500	-46.412266
1883.789062	-47.205391
1884.765625	-46.985279
1885.742188	-47.215061
1886.718750	-47.142429
1887.695312	-46.429649
1888.671875	-47.541111
1889.648438	-47.479782
1890.625000	-47.417328
1891.601562	-47.045219
1892.578125	-47.747574
1893.554688	-47.676594
1894.531250	-48.627117
1895.507812	-47.888165
1896.484375	-49.309753
1897.460938	-48.998466
1898.437500	-49.695396
1899.414062	-49.268951
1900.390625	-49.059582
1901.367188	-48.974224
1902.343750	-49.529388
1903.320312	-48.728603
1904.296875	-49.117455
1905.273438	-48.738899
1906.250000	-48.853397
1907.226562	-48.638103
1908.203125	-49.566616
1909.179688	-49.738945
1910.156250	-49.578690
1911.132812	-49.209511
1912.109375	-48.845512
1913.085938	-49.132126
1914.062500	-49.706760
1915.039062	-49.847706
1916.015625	-48.904881
1916.992188	-49.428463
1917.968750	-48.520111
1918.945312	-49.051842
1919.921875	-48.967449
1920.898438	-49.516949
1921.875000	-48.792923
1922.851562	-49.374374
1923.828125	-49.443878
1924.804688	-49.926491
1925.781250	-50.219540
1926.757812	-49.878193
1927.734375	-50.322647
1928.710938	-51.245232
1929.687500	-50.089245
1930.664062	-50.869938
1931.640625	-50.541584
1932.617188	-50.407284
1933.593750	-50.085285
1934.570312	-50.089642
1935.546875	-50.291576
1936.523438	-50.336788
1937.500000	-49.327248
1938.476562	-49.838669
1939.453125	-50.409607
1940.429688	-49.914330
1941.406250	-50.789352
1942.382812	-50.732662
1943.359375	-50.663139
1944.335938	-50.377419
1945.312500	-50.326725
1946.289062	-50.405376
1947.265625	-49.644165
1948.242188	-49.577709
1949.218750	-50.387249
1950.195312	-50.724758
1951.171875	-50.112110
1952.148438	-50.455524
1953.125000	-49.836067
1954.101562	-49.857983
1955.078125	-50.550442
1956.054688	-49.789963
1957.031250	-50.195839
1958.007812	-50.450382
1958.984375	-49.366989
1959.960938	-50.054859
1960.937500	-49.980179
1961.914062	-50.240898
1962.890625	-51.245529
1963.867188	-49.651798
1964.843750	-49.181396
1965.820312	-49.906021
1966.796875	-50.079594
1967.773438	-49.292484
1968.750000	-49.867489
1969.726562	-49.103046
1970.703125	-49.858761
1971.679688	-49.757458
1972.656250	-50.050262
1973.632812	-50.043163
1974.609375	-49.077831
1975.585938	-49.272087
1976.562500	-49.126740
1977.539062	-49.962589
1978.515625	-49.422680
1979.492188	-49.846451
1980.468750	-48.659203
1981.445312	-48.912125
1982.421875	-48.364521
1983.398438	-49.852329
1984.375000	-48.508778
1985.351562	-49.174892
1986.328125	-48.833187
1987.304688	-49.604664
1988.281250	-49.335114
1989.257812	-48.941387
1990.234375	-48.751453
1991.210938	-48.213402
1992.187500	-48.605042
1993.164062	-47.738178
1994.140625	-47.711159
1995.117188	-47.591129
1996.093750	-48.170067
1997.070312	-46.887207
1998.046875	-47.113945
1999.023438	-47.742195
2000.000000	-47.365990
2000.976562	-47.961025
2001.953125	-45.794075
2002.929688	-46.992783
2003.906250	-47.539459
2004.882812	-46.174629
2005.859375	-47.223614
2006.835938	-46.165382
2007.812500	-46.447758
2008.789062	-45.145412
2009.765625	-46.342564
2010.742188	-46.202568
2011.718750	-45.703274
2012.695312	-45.680618
2013.671875	-45.332718
2014.648438	-45.720837
2015.625000	-45.413815
2016.601562	-44.503185
2017.578125	-44.971382
2018.554688	-46.102577
2019.531250	-45.799629
2020.507812	-45.440033
2021.484375	-44.599281
2022.460938	-44.817333
2023.437500	-44.363708
2024.414062	-44.586246
2025.390625	-44.484123
2026.367188	-44.493893
2027.343750	-44.596134
2028.320312	-44.648647
2029.296875	-44.459461
2030.273438	-44.425426
2031.250000	-44.087784
2032.226562	-45.220062
2033.203125	-45.293015
2034.179688	-44.633286
2035.156250	-44.468189
2036.132812	-44.867393
2037.109375	-44.075706
2038.085938	-43.571465
2039.062500	-44.268234
2040.039062	-44.468555
2041.015625	-44.321877
2041.992188	-43.820766
2042.968750	-43.374020
2043.945312	-43.087761
2044.921875	-43.625778
2045.898438	-43.914459
2046.875000	-44.102268
2047.851562	-45.530365
2048.828125	-44.085049
2049.804688	-43.945759
2050.781250	-44.720402
2051.757812	-44.817177
2052.734375	-44.610577
2053.710938	-44.993240
2054.687500	-44.412346
2055.664062	-44.725044
2056.640625	-44.947380
2057.617188	-44.017963
2058.593750	-44.956264
2059.570312	-45.447540
2060.546875	-45.460602
2061.523438	-45.442356
2062.500000	-45.236626
2063.476562	-46.674252
2064.453125	-46.485439
2065.429688	-45.867992
2066.406250	-45.643822
2067.382812	-47.062782
2068.359375	-47.164410
2069.335938	-46.651340
2070.312500	-46.826397
2071.289062	-47.284664
2072.265625	-47.002884
2073.242188	-47.512070
2074.218750	-46.773186
2075.195312	-47.488770
2076.171875	-46.167625
2077.148438	-47.696548
2078.125000	-47.502171
2079.101562	-47.369377
2080.078125	-49.061092
2081.054688	-48.362411
2082.031250	-46.482006
2083.007812	-47.279945
2083.984375	-47.436993
2084.960938	-48.626602
2085.937500	-47.942402
2086.914062	-46.954319
2087.890625	-48.571144
2088.867188	-48.891808
2089.843750	-48.456974
2090.820312	-48.400784
2091.796875	-48.189461
2092.773438	-49.161068
2093.750000	-50.289612
2094.726562	-49.227055
2095.703125	-47.926342
2096.679688	-48.448822
2097.656250	-49.208046
2098.632812	-49.431263
2099.609375	-48.026646
2100.585938	-48.619659
2101.562500	-49.983086
2102.539062	-48.522511
2103.515625	-48.596626
2104.492188	-48.350933
2105.468750	-48.967216
2106.445312	-49.475964
2107.421875	-49.066429
2108.398438	-50.067009
2109.375000	-50.135765
2110.351562	-48.826172
2111.328125	-48.484627
2112.304688	-49.814220
2113.281250	-48.613258
2114.257812	-49.204842
2115.234375	-49.327393
2116.210938	-49.273277
2117.187500	-49.258499
2118.164062	-48.779839
2119.140625	-47.938396
2120.117188	-49.540405
2121.093750	-49.798870
2122.070312	-49.292995
2123.046875	-49.358166
2124.023438	-49.315674
2125.000000	-47.607109
2125.976562	-49.443287
2126.953125	-48.327412
2127.929688	-48.474522
2128.906250	-48.938511
2129.882812	-48.704483
2130.859375	-49.174583
2131.835938	-47.938999
2132.812500	-47.813061
2133.789062	-48.410427
2134.765625	-48.642181
2135.742188	-48.659416
2136.718750	-48.173866
2137.695312	-49.004250
2138.671875	-48.812729
2139.648438	-48.073872
2140.625000	-49.383183
2141.601562	-48.420406
2142.578125	-48.301266
2143.554688	-48.246944
2144.531250	-48.265270
2145.507812	-46.927944
2146.484375	-47.804489
2147.460938	-47.697170
2148.437500	-48.245575
2149.414062	-48.330662
2150.390625	-47.718422
2151.367188	-47.279613
2152.343750	-47.875526
2153.320312	-47.404739
2154.296875	-46.882603
2155.273438	-47.615860
2156.250000	-47.589886
2157.226562	-46.914474
2158.203125	-46.228863
2159.179688	-47.354214
2160.156250	-47.132915
2161.132812	-46.486912
2162.109375	-46.007263
2163.085938	-45.899937
2164.062500	-45.711884
2165.039062	-45.503998
2166.015625	-44.755608
2166.992188	-45.281162
2167.968750	-46.514000
2168.945312	-45.796623
2169.921875	-44.893055
2170.898438	-44.077881
2171.875000	-45.117386
2172.851562	-45.783302
2173.828125	-44.513573
2174.804688	-44.460644
2175.781250	-44.709141
2176.757812	-44.374851
2177.734375	-44.158169
2178.710938	-43.055000
2179.687500	-45.534313
2180.664062	-45.537357
2181.640625	-43.977989
2182.617188	-43.217148
2183.593750	-43.968910
2184.570312	-42.978012
2185.546875	-43.480240
2186.523438	-43.219997
2187.500000	-42.866058
2188.476562	-44.963692
2189.453125	-42.963432
2190.429688	-43.240852
2191.406250	-43.566727
2192.382812	-43.802433
2193.359375	-43.060379
2194.335938	-43.576275
2195.312500	-43.080666
2196.289062	-42.927181
2197.265625	-41.606800
2198.242188	-42.419067
2199.218750	-42.686821
2200.195312	-42.340775
2201.171875	-42.397583
2202.148438	-41.835915
2203.125000	-43.977016
2204.101562	-42.696854
2205.078125	-41.662277
2206.054688	-42.810474
2207.031250	-43.435078
2208.007812	-42.781403
2208.984375	-43.612103
2209.960938	-43.755836
2210.937500	-42.131577
2211.914062	-43.089649
2212.890625	-43.613472
2213.867188	-41.592018
2214.843750	-41.923485
2215.820312	-43.255474
2216.796875	-43.233463
2217.773438	-41.361065
2218.750000	-42.500175
2219.726562	-42.074570
2220.703125	-42.907749
2221.679688	-42.185104
2222.656250	-42.666267
2223.632812	-43.974892
2224.609375	-43.214233
2225.585938	-43.066402
2226.562500	-42.581745
2227.539062	-43.460083
2228.515625	-42.967560
2229.492188	-43.701897
2230.468750	-42.895950
2231.445312	-44.278629
2232.421875	-44.128925
2233.398438	-43.299896
2234.375000	-42.990761
2235.351562	-43.948524
2236.328125	-44.038452
2237.304688	-44.212105
2238.281250	-44.414906
2239.257812	-44.617401
2240.234375	-45.146214
2241.210938	-44.603580
2242.187500	-45.453796
2243.164062	-45.196884
2244.140625	-44.546810
2245.117188	-45.316044
2246.093750	-45.276627
2247.070312	-45.648827
2248.046875	-45.287701
2249.023438	-45.947758
2250.000000	-46.356262
2250.976562	-45.093060
2251.953125	-46.143024
2252.929688	-45.690567
2253.906250	-46.732059
2254.882812	-46.256416
2255.859375	-46.432976
2256.835938	-46.585884
2257.812500	-45.391098
2258.789062	-46.677471
2259.765625	-47.419029
2260.742188	-46.843464
2261.718750	-46.664196
2262.695312	-46.105473
2263.671875	-46.873505
2264.648438	-46.412357
2265.625000	-47.320103
2266.601562	-47.411507
2267.578125	-45.822781
2268.554688	-47.195118
2269.531250	-47.259216
2270.507812	-46.418629
2271.484375	-46.866684
2272.460938	-47.225990
2273.437500	-45.426544
2274.414062	-46.114964
2275.390625	-46.703590
2276.367188	-47.380894
2277.343750	-46.918850
2278.320312	-47.674507
2279.296875	-47.482998
2280.273438	-47.781906
2281.250000	-46.326828
2282.226562	-46.202526
2283.203125	-47.020790
2284.179688	-46.445721
2285.156250	-47.033401
2286.132812	-46.904842
2287.109375	-47.198307
2288.085938	-48.249142
2289.062500	-47.476398
2290.039062	-45.740562
2291.015625	-46.652958
2291.992188	-45.928551
2292.968750	-45.862637
2293.945312	-47.147583
2294.921875	-45.965187
2295.898438	-47.117512
2296.875000	-45.444374
2297.851562	-45.366550
2298.828125	-46.749233
2299.804688	-44.771965
2300.781250	-46.767689
2301.757812	-46.929569
2302.734375	-45.449959
2303.710938	-46.182316
2304.687500	-45.914085
2305.664062	-46.176487
2306.640625	-45.817665
2307.617188	-45.307247
2308.593750	-45.665333
2309.570312	-46.006802
2310.546875	-46.527119
2311.523438	-45.931438
2312.500000	-45.528637
2313.476562	-44.354568
2314.453125	-44.999214
2315.429688	-43.925076
2316.406250	-43.903999
2317.382812	-44.913052
2318.359375	-45.195812
2319.335938	-43.798592
2320.312500	-45.965500
2321.289062	-45.412777
2322.265625	-44.142864
2323.242188	-44.068981
2324.218750	-44.156025
2325.195312	-44.540512
2326.171875	-43.586933
2327.148438	-43.967236
2328.125000	-44.009117
2329.101562	-44.608189
2330.078125	-43.503693
2331.054688	-43.649273
2332.031250	-42.279255
2333.007812	-44.312088
2333.984375	-44.420910
2334.960938	-44.166672
2335.937500	-42.774452
2336.914062	-42.920647
2337.890625	-43.208221
2338.867188	-43.511646
2339.843750	-43.169094
2340.820312	-42.258957
2341.796875	-42.462265
2342.773438	-42.688236
2343.750000	-42.211109
2344.726562	-41.560986
2345.703125	-42.337612
2346.679688	-43.520882
2347.656250	-39.194851
2348.632812	-41.783421
2349.609375	-41.625420
2350.585938	-42.018143
2351.562500	-39.974365
2352.539062	-41.937099
2353.515625	-42.508904
2354.492188	-43.567890
2355.468750	-41.195393
2356.445312	-41.010113
2357.421875	-40.709236
2358.398438	-42.096935
2359.375000	-41.334721
2360.351562	-41.294258
2361.328125	-41.841385
2362.304688	-41.317146
2363.281250	-40.250458
2364.257812	-41.215202
2365.234375	-42.807373
2366.210938	-41.654949
2367.187500	-42.074070
2368.164062	-42.328102
2369.140625	-41.434891
2370.117188	-41.028633
2371.093750	-42.534340
2372.070312	-42.394745
2373.046875	-42.670944
2374.023438	-42.913570
2375.000000	-44.446819
2375.976562	-42.864643
2376.953125	-43.123024
2377.929688	-42.255688
2378.906250	-41.376774
2379.882812	-43.064198
2380.859375	-42.656574
2381.835938	-43.522652
2382.812500	-43.814053
2383.789062	-42.836121
2384.765625	-43.196449
2385.742188	-42.566151
2386.718750	-42.536152
2387.695312	-42.755524
2388.671875	-44.061787
2389.648438	-43.728855
2390.625000	-44.424011
2391.601562	-44.044502
2392.578125	-45.118069
2393.554688	-44.431870
2394.531250	-45.001427
2395.507812	-45.434334
2396.484375	-43.484024
2397.460938	-44.098694
2398.437500	-46.373924
2399.414062	-45.908833
2400.390625	-44.720257
2401.367188	-44.677441
2402.343750	-45.363407
2403.320312	-46.014366
2404.296875	-45.009247
2405.273438	-44.650963
2406.250000	-46.412849
2407.226562	-45.893501
2408.203125	-45.781479
2409.179688	-46.334625
2410.156250	-46.028259
2411.132812	-45.543106
2412.109375	-46.571243
2413.085938	-46.117046
2414.062500	-45.366516
2415.039062	-45.651855
2416.015625	-46.823490
2416.992188	-46.531567
2417.968750	-46.462608
2418.945312	-46.207924
2419.921875	-46.445053
2420.898438	-46.119385
2421.875000	-46.061172
2422.851562	-45.968872
2423.828125	-46.405220
2424.804688	-46.194405
2425.781250	-45.587322
2426.757812	-46.266144
2427.734375	-45.604767
2428.710938	-46.133247
2429.687500	-46.276821
2430.664062	-45.139164
2431.640625	-45.629238
2432.617188	-47.078041
2433.593750	-46.330067
2434.570312	-47.123013
2435.546875	-46.183167
2436.523438	-47.014538
2437.500000	-45.227745
2438.476562	-46.824589
2439.453125	-45.742466
2440.429688	-46.497433
2441.406250	-46.075718
2442.382812	-46.445053
2443.359375	-45.379406
2444.335938	-46.438915
2445.312500	-45.534740
2446.289062	-45.905846
2447.265625	-44.610878
2448.242188	-45.442707
2449.218750	-45.024426
2450.195312	-44.322407
2451.171875	-44.791592
2452.148438	-45.477665
2453.125000	-46.195450
2454.101562	-46.229015
2455.078125	-46.222515
2456.054688	-44.997387
2457.031250	-46.002159
2458.007812	-45.586445
2458.984375	-44.588139
2459.960938	-44.317921
2460.937500	-45.624405
2461.914062	-44.444698
2462.890625	-44.978214
2463.867188	-44.662025
2464.843750	-44.418350
2465.820312	-43.997192
2466.796875	-44.779816
2467.773438	-44.661053
2468.750000	-45.906040
2469.726562	-45.893902
2470.703125	-45.503796
2471.679688	-45.612705
2472.656250	-44.889412
2473.632812	-44.600941
2474.609375	-44.900326
2475.585938	-45.766991
2476.562500	-44.883942
2477.539062	-44.395264
2478.515625	-45.032795
2479.492188	-45.123390
2480.468750	-45.530655
2481.445312	-43.622185
2482.421875	-45.299423
2483.398438	-45.391804
2484.375000	-43.510494
2485.351562	-44.774361
2486.328125	-43.129532
2487.304688	-44.455547
2488.281250	-43.497089
2489.257812	-43.260967
2490.234375	-43.427933
2491.210938	-44.897335
2492.187500	-43.910530
2493.164062	-44.557323
2494.140625	-43.388195
2495.117188	-44.024643
2496.093750	-44.579674
2497.070312	-43.622349
2498.046875	-44.204147
2499.023438	-44.989178
2500.000000	-45.209015
2500.976562	-44.860352
2501.953125	-44.651962
2502.929688	-45.890156
2503.906250	-45.201889
2504.882812	-43.235901
2505.859375	-43.707798
2506.835938	-44.947189
2507.812500	-44.169552
2508.789062	-45.102898
2509.765625	-44.683792
2510.742188	-44.789864
2511.718750	-45.424011
2512.695312	-45.516705
2513.671875	-44.482235
2514.648438	-45.113949
2515.625000	-45.215500
2516.601562	-46.166794
2517.578125	-45.458485
2518.554688	-46.775288
2519.531250	-46.713356
2520.507812	-45.530735
2521.484375	-45.568050
2522.460938	-45.708580
2523.437500	-46.000420
2524.414062	-45.238853
2525.390625	-45.096764
2526.367188	-46.084991
2527.343750	-45.880539
2528.320312	-45.673943
2529.296875	-44.791920
2530.273438	-46.294544
2531.250000	-45.797539
2532.226562	-45.041214
2533.203125	-45.041630
2534.179688	-46.289715
2535.156250	-45.380409
2536.132812	-45.596661
2537.109375	-45.200821
2538.085938	-44.781361
2539.062500	-45.824005
2540.039062	-46.076492
2541.015625	-45.113823
2541.992188	-44.920986
2542.968750	-45.665413
2543.945312	-45.432812
2544.921875	-46.028706
2545.898438	-45.561108
2546.875000	-45.990494
2547.851562	-45.486523
2548.828125	-46.066963
2549.804688	-46.008999
2550.781250	-45.607857
2551.757812	-45.032391
2552.734375	-46.060219
2553.710938	-45.866756
2554.687500	-45.954205
2555.664062	-45.977898
2556.640625	-46.516552
2557.617188	-46.144173
2558.593750	-45.880569
2559.570312	-45.348576
2560.546875	-46.708160
2561.523438	-46.312412
2562.500000	-45.513439
2563.476562	-45.625195
2564.453125	-46.998688
2565.429688	-46.681797
2566.406250	-46.055466
2567.382812	-46.096310
2568.359375	-46.623100
2569.335938	-46.149906
2570.312500	-45.698406
2571.289062	-45.584679
2572.265625	-45.990044
2573.242188	-46.925846
2574.218750	-45.517063
2575.195312	-44.750648
2576.171875	-46.040909
2577.148438	-46.540634
2578.125000	-45.925426
2579.101562	-46.521729
2580.078125	-46.319454
2581.054688	-46.674210
2582.031250	-46.250938
2583.007812	-46.491386
2583.984375	-46.203262
2584.960938	-46.504890
2585.937500	-46.329205
2586.914062	-47.648632
2587.890625	-46.054562
2588.867188	-46.816406
2589.843750	-46.182468
2590.820312	-45.970749
2591.796875	-45.914143
2592.773438	-46.349197
2593.750000	-46.086632
2594.726562	-47.008251
2595.703125	-45.977219
2596.679688	-45.699799
2597.656250	-46.537632
2598.632812	-47.377956
2599.609375	-46.766724
2600.585938	-46.148956
2601.562500	-46.188560
2602.539062	-46.180813
2603.515625	-46.417500
2604.492188	-45.701031
2605.468750	-47.216290
2606.445312	-46.157372
2607.421875	-45.783131
2608.398438	-46.323181
2609.375000	-46.962612
2610.351562	-47.422153
2611.328125	-46.854424
2612.304688	-46.790428
2613.281250	-46.562965
2614.257812	-46.603458
2615.234375	-46.512012
2616.210938	-46.038704
2617.187500	-46.034206
2618.164062	-47.016804
2619.140625	-46.439041
2620.117188	-47.028328
2621.093750	-46.485260
2622.070312	-46.983242
2623.046875	-46.074409
2624.023438	-46.033478
2625.000000	-45.910870
2625.976562	-47.280392
2626.953125	-46.830070
2627.929688	-46.484402
2628.906250	-45.967472
2629.882812	-46.193794
2630.859375	-45.698723
2631.835938	-46.249973
2632.812500	-46.071213
2633.789062	-46.210228
2634.765625	-45.323814
2635.742188	-44.936470
2636.718750	-45.368336
2637.695312	-44.825966
2638.671875	-46.132820
2639.648438	-45.234989
2640.625000	-46.172039
2641.601562	-44.908485
2642.578125	-45.687038
2643.554688	-45.044006
2644.531250	-45.585724
2645.507812	-44.615738
2646.484375	-44.859222
2647.460938	-44.845135
2648.437500	-44.919518
2649.414062	-45.362144
2650.390625	-45.084900
2651.367188	-45.384548
2652.343750	-45.495453
2653.320312	-46.317039
2654.296875	-46.535236
2655.273438	-45.625568
2656.250000	-46.476410
2657.226562	-45.104584
2658.203125	-45.322903
2659.179688	-46.169693
2660.156250	-45.940884
2661.132812	-45.583908
2662.109375	-44.700039
2663.085938	-43.925735
2664.062500	-44.926937
2665.039062	-45.864845
2666.015625	-45.948513
2666.992188	-45.172722
2667.968750	-44.993126
2668.945312	-45.505951
2669.921875	-45.222351
2670.898438	-46.073112
2671.875000	-46.631599
2672.851562	-45.395805
2673.828125	-44.504494
2674.804688	-43.909286
2675.781250	-44.997150
2676.757812	-45.212456
2677.734375	-44.144894
2678.710938	-44.582066
2679.687500	-44.540604
2680.664062	-43.736397
2681.640625	-44.877617
2682.617188	-46.022377
2683.593750	-45.132542
2684.570312	-44.288792
2685.546875	-43.869980
2686.523438	-43.914860
2687.500000	-45.387325
2688.476562	-44.364677
2689.453125	-44.918365
2690.429688	-44.491753
2691.406250	-45.003021
2692.382812	-43.956188
2693.359375	-44.513935
2694.335938	-44.141575
2695.312500	-44.235428
2696.289062	-43.234585
2697.265625	-44.326492
2698.242188	-44.301125
2699.218750	-43.904888
2700.195312	-43.334000
2701.171875	-43.923595
2702.148438	-42.854122
2703.125000	-42.258839
2704.101562	-42.782551
2705.078125	-44.441853
2706.054688	-44.029442
2707.031250	-44.194084
2708.007812	-41.980404
2708.984375	-42.982098
2709.960938	-44.083874
2710.937500	-43.748466
2711.914062	-44.814400
2712.890625	-43.930347
2713.867188	-44.333370
2714.843750	-43.277485
2715.820312	-42.624825
2716.796875	-44.494915
2717.773438	-44.835850
2718.750000	-43.968002
2719.726562	-44.282955
2720.703125	-44.460979
2721.679688	-43.881645
2722.656250	-42.983433
2723.632812	-42.851917
2724.609375	-43.516315
2725.585938	-43.230686
2726.562500	-43.063461
2727.539062	-44.518509
2728.515625	-42.334209
2729.492188	-42.453083
2730.468750	-43.672844
2731.445312	-44.725842
2732.421875	-43.070534
2733.398438	-43.438286
2734.375000	-42.676945
2735.351562	-43.653214
2736.328125	-43.571396
2737.304688	-43.252186
2738.281250	-42.698189
2739.257812	-43.947098
2740.234375	-44.080898
2741.210938	-43.402222
2742.187500	-43.278732
2743.164062	-44.160515
2744.140625	-44.593655
2745.117188	-43.737637
2746.093750	-44.326992
2747.070312	-43.046913
2748.046875	-43.072941
2749.023438	-43.223606
2750.000000	-42.891834
2750.976562	-42.824017
2751.953125	-42.723560
2752.929688	-43.661003
2753.906250	-42.923389
2754.882812	-42.215958
2755.859375	-42.858089
2756.835938	-43.308903
2757.812500	-44.413975
2758.789062	-43.187279
2759.765625	-42.193687
2760.742188	-42.223904
2761.718750	-43.391834
2762.695312	-44.541454
2763.671875	-43.850296
2764.648438	-42.823086
2765.625000	-42.347748
2766.601562	-42.767056
2767.578125	-42.987194
2768.554688	-43.963711
2769.531250	-43.184822
2770.507812	-43.680801
2771.484375	-43.773956
2772.460938	-42.368412
2773.437500	-43.439373
2774.414062	-42.770298
2775.390625	-43.923420
2776.367188	-43.644356
2777.343750	-43.710415
2778.320312	-42.992699
2779.296875	-43.026051
2780.273438	-44.663422
2781.250000	-43.024521
2782.226562	-44.613632
2783.203125	-44.191250
2784.179688	-44.471783
2785.156250	-44.672443
2786.132812	-42.828968
2787.109375	-43.547508
2788.085938	-42.820480
2789.062500	-43.729496
2790.039062	-44.713440
2791.015625	-45.310497
2791.992188	-44.028339
2792.968750	-43.006916
2793.945312	-44.595261
2794.921875	-45.226078
2795.898438	-44.558456
2796.875000	-44.499882
2797.851562	-43.532394
2798.828125	-43.690250
2799.804688	-44.976192
2800.781250	-44.605640
2801.757812	-45.338772
2802.734375	-45.527802
2803.710938	-45.204811
2804.687500	-44.766754
2805.664062	-43.266476
2806.640625	-45.157600
2807.617188	-45.120770
2808.593750	-44.721893
2809.570312	-44.787552
2810.546875	-44.179535
2811.523438	-45.067268
2812.500000	-45.224644
2813.476562	-44.539326
2814.453125	-43.999825
2815.429688	-44.474312
2816.406250	-45.082531
2817.382812	-45.019302
2818.359375	-44.315754
2819.335938	-44.403835
2820.312500	-45.074062
2821.289062	-44.752758
2822.265625	-44.581074
2823.242188	-43.551758
2824.218750	-44.749237
2825.195312	-45.108677
2826.171875	-45.306530
2827.148438	-43.924313
2828.125000	-44.011971
2829.101562	-44.618279
2830.078125	-45.256466
2831.054688	-44.542950
2832.031250	-44.021065
2833.007812	-44.285969
2833.984375	-44.741653
2834.960938	-44.228157
2835.937500	-44.924301
2836.914062	-45.043365
2837.890625	-45.054150
2838.867188	-45.566666
2839.843750	-45.167713
2840.820312	-45.046566
2841.796875	-44.662769
2842.773438	-44.512398
2843.750000	-44.113132
2844.726562	-44.916161
2845.703125	-45.173618
2846.679688	-44.363480
2847.656250	-45.142780
2848.632812	-45.367153
2849.609375	-44.304703
2850.585938	-44.114075
2851.562500	-45.258991
2852.539062	-45.904221
2853.515625	-45.389347
2854.492188	-46.214180
2855.468750	-45.586700
2856.445312	-46.364643
2857.421875	-44.824574
2858.398438	-44.892223
2859.375000	-43.904202
2860.351562	-43.596336
2861.328125	-44.643982
2862.304688	-44.424496
2863.281250	-45.009113
2864.257812	-44.258461
2865.234375	-44.464756
2866.210938	-44.486004
2867.187500	-43.568851
2868.164062	-44.852310
2869.140625	-45.038223
2870.117188	-44.379330
2871.093750	-44.211498
2872.070312	-45.443760
2873.046875	-46.604771
2874.023438	-44.436672
2875.000000	-44.471130
2875.976562	-45.613785
2876.953125	-43.404591
2877.929688	-43.269485
2878.906250	-44.653816
2879.882812	-43.838211
2880.859375	-45.536652
2881.835938	-43.586678
2882.812500	-44.260700
2883.789062	-44.509796
2884.765625	-44.611210
2885.742188	-44.165447
2886.718750	-44.341682
2887.695312	-44.045280
2888.671875	-43.832577
2889.648438	-43.828045
2890.625000	-42.530453
2891.601562	-44.141819
2892.578125	-43.453194
2893.554688	-42.849068
2894.531250	-43.074760
2895.507812	-44.035480
2896.484375	-43.337864
2897.460938	-43.520004
2898.437500	-43.046745
2899.414062	-43.061272
2900.390625	-43.860821
2901.367188	-43.304501
2902.343750	-42.897072
2903.320312	-42.829723
2904.296875	-42.935848
2905.273438	-42.915127
2906.250000	-42.307323
2907.226562	-42.409031
2908.203125	-43.376720
2909.179688	-43.344601
2910.156250	-42.859093
2911.132812	-42.883568
2912.109375	-43.671898
2913.085938	-43.825214
2914.062500	-41.259148
2915.039062	-42.313995
2916.015625	-43.354458
2916.992188	-43.780769
2917.968750	-42.392097
2918.945312	-43.095222
2919.921875	-42.410370
2920.898438	-42.500866
2921.875000	-42.367043
2922.851562	-43.723770
2923.828125	-43.512119
2924.804688	-43.341660
2925.781250	-42.351173
2926.757812	-43.265194
2927.734375	-43.531841
2928.710938	-42.457710
2929.687500	-42.644104
2930.664062	-43.748825
2931.640625	-43.541298
2932.617188	-43.046577
2933.593750	-42.028065
2934.570312	-42.613964
2935.546875	-43.282318
2936.523438	-42.867702
2937.500000	-42.967274
2938.476562	-42.550602
2939.453125	-42.732079
2940.429688	-42.875389
2941.406250	-42.482128
2942.382812	-43.066952
2943.359375	-42.969940
2944.335938	-42.078957
2945.312500	-42.558025
2946.289062	-42.821190
2947.265625	-42.592049
2948.242188	-42.373974
2949.218750	-41.778919
2950.195312	-42.069813
2951.171875	-42.825314
2952.148438	-42.770744
2953.125000	-42.738693
2954.101562	-42.040169
2955.078125	-41.828415
2956.054688	-43.131691
2957.031250	-42.238518
2958.007812	-42.719738
2958.984375	-43.027161
2959.960938	-42.579563
2960.937500	-42.397732
2961.914062	-42.925564
2962.890625	-41.782429
2963.867188	-43.540871
2964.843750	-43.168552
2965.820312	-42.056259
2966.796875	-43.924042
2967.773438	-42.629330
2968.750000	-42.698605
2969.726562	-43.033230
2970.703125	-43.368637
2971.679688	-42.453014
2972.656250	-42.278839
2973.632812	-43.260315
2974.609375	-42.946606
2975.585938	-44.337296
2976.562500	-43.367615
2977.539062	-42.351574
2978.515625	-43.740898
2979.492188	-43.086884
2980.468750	-43.270634
2981.445312	-43.983261
2982.421875	-43.193329
2983.398438	-43.625095
2984.375000	-43.092331
2985.351562	-44.201683
2986.328125	-42.111977
2987.304688	-43.492317
2988.281250	-43.328671
2989.257812	-44.356949
2990.234375	-42.850266
2991.210938	-42.954292
2992.187500	-43.620579
2993.164062	-44.080765
2994.140625	-43.228172
2995.117188	-44.520432
2996.093750	-44.763794
2997.070312	-42.809456
2998.046875	-43.184574
2999.023438	-43.897297
3000.000000	-43.650745
3000.976562	-43.304726
3001.953125	-42.723198
3002.929688	-44.234673
3003.906250	-44.372005
3004.882812	-44.123760
3005.859375	-45.083374
3006.835938	-45.067265
3007.812500	-45.039940
3008.789062	-43.224228
3009.765625	-44.197376
3010.742188	-46.126213
3011.718750	-44.706924
3012.695312	-44.087440
3013.671875	-44.278690
3014.648438	-44.873657
3015.625000	-44.254314
3016.601562	-43.954826
3017.578125	-43.619720
3018.554688	-44.254959
3019.531250	-44.547848
3020.507812	-44.730495
3021.484375	-44.748432
3022.460938	-43.429886
3023.437500	-43.916660
3024.414062	-44.474846
3025.390625	-44.633644
3026.367188	-44.330673
3027.343750	-44.274597
3028.320312	-45.256191
3029.296875	-44.724159
3030.273438	-43.451229
3031.250000	-44.311913
3032.226562	-45.122234
3033.203125	-44.111790
3034.179688	-44.237808
3035.156250	-44.288193
3036.132812	-44.081116
3037.109375	-44.216873
3038.085938	-44.492100
3039.062500	-45.074615
3040.039062	-45.736217
3041.015625	-44.668385
3041.992188	-45.265636
3042.968750	-43.829235
3043.945312	-44.123688
3044.921875	-45.880360
3045.898438	-44.595692
3046.875000	-44.826355
3047.851562	-45.165127
3048.828125	-44.475658
3049.804688	-44.506584
3050.781250	-44.608875
3051.757812	-44.309319
3052.734375	-44.622494
3053.710938	-43.774544
3054.687500	-43.481827
3055.664062	-43.459404
3056.640625	-45.166130
3057.617188	-44.213902
3058.593750	-45.042614
3059.570312	-45.555252
3060.546875	-44.805405
3061.523438	-43.477139
3062.500000	-43.315643
3063.476562	-44.221336
3064.453125	-44.181931
3065.429688	-43.390709
3066.406250	-44.241470
3067.382812	-44.529541
3068.359375	-44.046219
3069.335938	-42.761551
3070.312500	-43.494354
3071.289062	-43.225807
3072.265625	-44.090851
3073.242188	-44.188091
3074.218750	-43.766247
3075.195312	-43.309780
3076.171875	-43.593033
3077.148438	-44.756653
3078.125000	-44.493645
3079.101562	-43.677734
3080.078125	-43.721375
3081.054688	-43.977448
3082.031250	-43.552372
3083.007812	-44.492935
3083.984375	-42.918152
3084.960938	-42.988194
3085.937500	-42.736721
3086.914062	-43.655598
3087.890625	-43.980797
3088.867188	-44.481052
3089.843750	-43.684757
3090.820312	-42.717815
3091.796875	-42.642544
3092.773438	-41.860706
3093.750000	-42.431614
3094.726562	-43.725994
3095.703125	-41.714527
3096.679688	-42.173584
3097.656250	-43.565117
3098.632812	-42.814030
3099.609375	-41.479168
3100.585938	-41.319256
3101.562500	-41.989735
3102.539062	-42.586895
3103.515625	-41.790501
3104.492188	-42.769226
3105.468750	-42.661690
3106.445312	-41.918575
3107.421875	-41.822514
3108.398438	-41.885265
3109.375000	-41.470383
3110.351562	-43.176537
3111.328125	-42.126381
3112.304688	-42.796207
3113.281250	-42.021065
3114.257812	-43.130936
3115.234375	-42.502842
3116.210938	-42.075985
3117.187500	-41.349457
3118.164062	-42.286285
3119.140625	-42.584614
3120.117188	-43.399719
3121.093750	-41.442699
3122.070312	-41.247822
3123.046875	-41.726643
3124.023438	-42.808208
3125.000000	-42.463089
3125.976562	-41.778286
3126.953125	-40.673401
3127.929688	-41.632339
3128.906250	-41.877171
3129.882812	-42.108822
3130.859375	-41.877193
3131.835938	-42.716457
3132.812500	-41.513706
3133.789062	-40.860435
3134.765625	-41.604351
3135.742188	-42.132172
3136.718750	-41.432396
3137.695312	-40.875484
3138.671875	-42.358742
3139.648438	-41.152626
3140.625000	-41.744534
3141.601562	-41.463547
3142.578125	-40.780312
3143.554688	-41.245941
3144.531250	-41.524345
3145.507812	-41.524483
3146.484375	-39.575699
3147.460938	-41.093449
3148.437500	-41.728619
3149.414062	-41.877243
3150.390625	-42.055683
3151.367188	-41.298233
3152.343750	-40.696239
3153.320312	-40.986156
3154.296875	-40.285854
3155.273438	-40.076248
3156.250000	-40.486729
3157.226562	-41.378044
3158.203125	-41.511467
3159.179688	-41.021954
3160.156250	-41.934132
3161.132812	-41.243153
3162.109375	-41.980930
3163.085938	-42.861900
3164.062500	-41.202290
3165.039062	-41.040283
3166.015625	-42.467289
3166.992188	-43.243549
3167.968750	-42.295818
3168.945312	-41.059376
3169.921875	-41.589878
3170.898438	-41.297539
3171.875000	-42.288792
3172.851562	-41.993706
3173.828125	-42.822224
3174.804688	-43.144829
3175.781250	-43.492222
3176.757812	-43.738052
3177.734375	-43.910461
3178.710938	-42.922726
3179.687500	-42.241413
3180.664062	-43.324615
3181.640625	-44.664009
3182.617188	-43.545010
3183.593750	-42.750206
3184.570312	-43.623463
3185.546875	-44.117313
3186.523438	-43.777546
3187.500000	-42.984787
3188.476562	-43.856892
3189.453125	-44.311771
3190.429688	-43.276066
3191.406250	-43.267570
3192.382812	-44.583191
3193.359375	-45.321407
3194.335938	-44.918640
3195.312500	-44.979111
3196.289062	-44.269421
3197.265625	-44.823723
3198.242188	-44.740067
3199.218750	-45.366219
3200.195312	-44.047115
3201.171875	-44.460239
3202.148438	-44.963406
3203.125000	-44.400253
3204.101562	-44.111847
3205.078125	-44.739178
3206.054688	-44.756233
3207.031250	-44.431477
3208.007812	-44.641823
3208.984375	-44.457573
3209.960938	-45.214008
3210.937500	-43.666336
3211.914062	-42.635056
3212.890625	-43.891125
3213.867188	-45.220375
3214.843750	-44.957565
3215.820312	-43.677567
3216.796875	-44.182400
3217.773438	-44.867096
3218.750000	-45.206993
3219.726562	-44.849346
3220.703125	-44.382854
3221.679688	-43.821152
3222.656250	-44.467102
3223.632812	-45.088451
3224.609375	-45.781010
3225.585938	-44.548065
3226.562500	-44.573021
3227.539062	-45.582893
3228.515625	-44.122517
3229.492188	-44.226238
3230.468750	-44.424332
3231.445312	-44.356701
3232.421875	-44.621574
3233.398438	-43.186626
3234.375000	-43.773960
3235.351562	-43.324032
3236.328125	-44.975105
3237.304688	-45.608452
3238.281250	-44.616238
3239.257812	-42.593159
3240.234375	-44.707241
3241.210938	-43.783295
3242.187500	-42.340256
3243.164062	-40.711464
3244.140625	-43.108280
3245.117188	-44.002121
3246.093750	-39.918667
3247.070312	-42.589626
3248.046875	-42.152420
3249.023438	-39.964428
3250.000000	-41.804504
3250.976562	-42.805195
3251.953125	-43.955597
3252.929688	-43.098209
3253.906250	-40.489094
3254.882812	-42.947041
3255.859375	-41.919422
3256.835938	-42.838634
3257.812500	-43.051464
3258.789062	-44.304829
3259.765625	-44.508003
3260.742188	-43.870235
3261.718750	-43.851727
3262.695312	-41.506641
3263.671875	-42.914322
3264.648438	-42.882469
3265.625000	-42.528191
3266.601562	-44.097980
3267.578125	-44.689331
3268.554688	-43.516972
3269.531250	-44.074730
3270.507812	-43.105877
3271.484375	-42.380108
3272.460938	-42.368683
3273.437500	-42.708569
3274.414062	-41.894741
3275.390625	-42.950642
3276.367188	-43.618504
3277.343750	-43.314953
3278.320312	-43.715885
3279.296875	-43.285755
3280.273438	-42.553577
3281.250000	-43.350040
3282.226562	-44.083714
3283.203125	-42.683636
3284.179688	-42.029488
3285.156250	-41.826721
3286.132812	-41.595116
3287.109375	-41.744461
3288.085938	-43.460285
3289.062500	-43.840466
3290.039062	-44.262180
3291.015625	-43.391739
3291.992188	-42.816399
3292.968750	-43.337872
3293.945312	-42.969933
3294.921875	-42.504532
3295.898438	-42.193645
3296.875000	-42.676640
3297.851562	-41.918198
3298.828125	-41.941273
3299.804688	-43.061588
3300.781250	-43.883812
3301.757812	-42.875271
3302.734375	-42.790501
3303.710938	-42.383701
3304.687500	-42.784645
3305.664062	-43.986694
3306.640625	-42.792923
3307.617188	-42.284603
3308.593750	-42.053181
3309.570312	-40.893036
3310.546875	-40.984859
3311.523438	-42.012249
3312.500000	-43.680676
3313.476562	-42.754738
3314.453125	-42.945305
3315.429688	-41.354687
3316.406250	-42.427670
3317.382812	-43.796661
3318.359375	-41.738415
3319.335938	-41.194729
3320.312500	-41.942711
3321.289062	-40.723377
3322.265625	-41.810417
3323.242188	-41.943699
3324.218750	-41.405144
3325.195312	-41.504719
3326.171875	-41.587074
3327.148438	-40.632660
3328.125000	-41.858860
3329.101562	-43.123554
3330.078125	-40.594624
3331.054688	-40.099091
3332.031250	-40.951370
3333.007812	-40.087959
3333.984375	-41.061508
3334.960938	-40.260098
3335.937500	-42.491055
3336.914062	-42.831394
3337.890625	-42.264435
3338.867188	-40.470039
3339.843750	-39.108395
3340.820312	-41.019215
3341.796875	-38.782410
3342.773438	-39.855209
3343.750000	-40.909336
3344.726562	-41.222885
3345.703125	-40.926949
3346.679688	-42.024639
3347.656250	-42.144775
3348.632812	-37.679882
3349.609375	-41.263908
3350.585938	-41.918182
3351.562500	-40.733879
3352.539062	-41.976715
3353.515625	-40.983242
3354.492188	-39.953091
3355.468750	-39.260258
3356.445312	-43.117168
3357.421875	-41.887936
3358.398438	-43.046318
3359.375000	-38.559315
3360.351562	-42.659973
3361.328125	-42.686100
3362.304688	-43.761955
3363.281250	-43.682129
3364.257812	-45.102352
3365.234375	-43.752052
3366.210938	-44.538052
3367.187500	-44.069111
3368.164062	-44.844471
3369.140625	-44.475063
3370.117188	-45.223919
3371.093750	-45.418018
3372.070312	-45.136742
3373.046875	-44.634777
3374.023438	-44.674385
3375.000000	-43.954601
3375.976562	-44.489651
3376.953125	-45.825390
3377.929688	-45.443939
3378.906250	-45.128822
3379.882812	-45.555641
3380.859375	-45.503151
3381.835938	-46.317009
3382.812500	-46.505886
3383.789062	-45.631130
3384.765625	-46.685299
3385.742188	-45.514290
3386.718750	-46.398621
3387.695312	-45.912296
3388.671875	-45.278603
3389.648438	-45.935169
3390.625000	-45.761810
3391.601562	-46.787453
3392.578125	-45.660751
3393.554688	-45.778927
3394.531250	-46.777573
3395.507812	-45.305027
3396.484375	-44.881138
3397.460938	-45.718948
3398.437500	-45.360516
3399.414062	-46.431316
3400.390625	-46.027882
3401.367188	-45.546764
3402.343750	-45.579887
3403.320312	-45.963654
3404.296875	-45.605450
3405.273438	-46.166107
3406.250000	-46.405094
3407.226562	-46.242313
3408.203125	-47.271400
3409.179688	-46.464401
3410.156250	-44.984619
3411.132812	-45.989727
3412.109375	-45.813953
3413.085938	-46.854435
3414.062500	-46.897820
3415.039062	-46.193356
3416.015625	-46.502689
3416.992188	-45.601120
3417.968750	-47.118984
3418.945312	-46.678898
3419.921875	-45.925400
3420.898438	-45.993752
3421.875000	-45.632034
3422.851562	-45.345730
3423.828125	-47.392223
3424.804688	-45.832031
3425.781250	-45.444611
3426.757812	-46.350887
3427.734375	-44.815956
3428.710938	-46.229649
3429.687500	-46.373783
3430.664062	-46.493767
3431.640625	-44.962605
3432.617188	-45.735374
3433.593750	-47.681660
3434.570312	-47.193108
3435.546875	-47.208130
3436.523438	-46.510071
3437.500000	-45.462383
3438.476562	-45.512901
3439.453125	-46.666298
3440.429688	-46.428871
3441.406250	-46.434551
3442.382812	-46.155983
3443.359375	-45.873848
3444.335938	-45.402664
3445.312500	-45.250423
3446.289062	-46.438839
3447.265625	-46.208057
3448.242188	-45.324856
3449.218750	-45.497452
3450.195312	-45.694443
3451.171875	-46.380131
3452.148438	-46.618000
3453.125000	-46.280895
3454.101562	-45.598671
3455.078125	-44.749992
3456.054688	-45.247993
3457.031250	-45.572445
3458.007812	-45.606438
3458.984375	-45.698643
3459.960938	-45.516247
3460.937500	-47.046715
3461.914062	-45.932137
3462.890625	-46.324871
3463.867188	-45.385155
3464.843750	-45.220028
3465.820312	-44.569210
3466.796875	-45.907192
3467.773438	-45.161228
3468.750000	-45.985207
3469.726562	-44.697594
3470.703125	-46.047607
3471.679688	-45.677475
3472.656250	-44.643860
3473.632812	-45.648193
3474.609375	-46.456757
3475.585938	-46.792213
3476.562500	-44.982262
3477.539062	-44.836845
3478.515625	-45.077095
3479.492188	-45.368057
3480.468750	-45.985165
3481.445312	-45.612411
3482.421875	-45.000313
3483.398438	-44.470131
3484.375000	-46.119831
3485.351562	-46.848328
3486.328125	-45.571819
3487.304688	-45.239548
3488.281250	-45.641098
3489.257812	-45.502357
3490.234375	-44.900654
3491.210938	-44.463070
3492.187500	-45.098934
3493.164062	-44.253536
3494.140625	-44.433582
3495.117188	-44.216984
3496.093750	-45.507778
3497.070312	-44.492867
3498.046875	-45.713615
3499.023438	-44.603897
3500.000000	-44.786709
3500.976562	-43.702854
3501.953125	-44.327770
3502.929688	-45.817257
3503.906250	-45.263134
3504.882812	-45.208046
3505.859375	-44.583626
3506.835938	-45.160828
3507.812500	-45.271545
3508.789062	-43.933498
3509.765625	-44.829502
3510.742188	-46.261181
3511.718750	-44.748238
3512.695312	-44.627319
3513.671875	-44.310810
3514.648438	-44.902378
3515.625000	-44.863003
3516.601562	-43.999054
3517.578125	-43.390522
3518.554688	-44.364098
3519.531250	-44.095722
3520.507812	-45.561604
3521.484375	-44.732918
3522.460938	-44.281143
3523.437500	-45.478989
3524.414062	-44.922955
3525.390625	-44.693024
3526.367188	-44.513855
3527.343750	-44.334126
3528.320312	-44.418171
3529.296875	-45.563408
3530.273438	-44.816948
3531.250000	-45.629631
3532.226562	-44.308018
3533.203125	-45.097237
3534.179688	-45.627182
3535.156250	-45.913021
3536.132812	-44.438416
3537.109375	-45.359058
3538.085938	-45.249454
3539.062500	-46.465889
3540.039062	-45.782433
3541.015625	-45.827534
3541.992188	-45.972221
3542.968750	-44.775146
3543.945312	-46.128880
3544.921875	-47.121429
3545.898438	-48.183163
3546.875000	-46.857628
3547.851562	-47.092957
3548.828125	-46.286621
3549.804688	-46.709351
3550.781250	-46.010323
3551.757812	-46.659157
3552.734375	-46.913029
3553.710938	-47.485561
3554.687500	-46.252934
3555.664062	-47.438763
3556.640625	-48.064449
3557.617188	-47.165707
3558.593750	-47.711235
3559.570312	-47.072807
3560.546875	-48.010281
3561.523438	-48.570564
3562.500000	-47.789581
3563.476562	-47.717781
3564.453125	-47.239567
3565.429688	-48.486088
3566.406250	-47.830570
3567.382812	-46.794113
3568.359375	-47.144661
3569.335938	-48.437828
3570.312500	-48.569290
3571.289062	-47.231995
3572.265625	-47.601589
3573.242188	-48.021679
3574.218750	-48.293190
3575.195312	-48.232059
3576.171875	-48.829887
3577.148438	-48.565536
3578.125000	-48.403748
3579.101562	-48.290180
3580.078125	-49.491520
3581.054688	-48.943375
3582.031250	-47.504761
3583.007812	-47.840893
3583.984375	-49.273975
3584.960938	-49.633373
3585.937500	-49.310867
3586.914062	-49.536858
3587.890625	-48.511295
3588.867188	-48.887608
3589.843750	-48.303356
3590.820312	-48.050140
3591.796875	-47.914955
3592.773438	-47.623035
3593.750000	-48.847958
3594.726562	-47.872044
3595.703125	-48.006214
3596.679688	-48.339283
3597.656250	-48.562107
3598.632812	-49.172798
3599.609375	-48.511765
3600.585938	-48.539562
3601.562500	-49.146679
3602.539062	-48.691849
3603.515625	-49.110737
3604.492188	-48.098598
3605.468750	-48.546810
3606.445312	-49.369938
3607.421875	-48.743694
3608.398438	-48.533588
3609.375000	-48.495495
3610.351562	-49.229710
3611.328125	-49.238842
3612.304688	-47.744190
3613.281250	-48.812576
3614.257812	-48.212467
3615.234375	-47.334324
3616.210938	-48.807014
3617.187500	-47.518307
3618.164062	-47.526390
3619.140625	-49.033119
3620.117188	-48.773296
3621.093750	-47.000519
3622.070312	-48.633682
3623.046875	-49.132618
3624.023438	-48.855659
3625.000000	-48.587612
3625.976562	-48.548920
3626.953125	-49.891235
3627.929688	-48.928875
3628.906250	-48.019199
3629.882812	-48.326180
3630.859375	-48.124100
3631.835938	-48.743618
3632.812500	-48.759853
3633.789062	-48.320877
3634.765625	-48.171272
3635.742188	-47.986382
3636.718750	-48.733284
3637.695312	-47.393253
3638.671875	-47.442429
3639.648438	-48.081711
3640.625000	-48.580364
3641.601562	-48.696461
3642.578125	-48.721634
3643.554688	-48.930466
3644.531250	-47.246960
3645.507812	-47.939743
3646.484375	-49.318455
3647.460938	-48.338013
3648.437500	-48.339275
3649.414062	-48.638134
3650.390625	-49.048668
3651.367188	-48.897896
3652.343750	-48.008205
3653.320312	-48.838608
3654.296875	-49.417992
3655.273438	-49.383709
3656.250000	-48.901215
3657.226562	-47.979767
3658.203125	-49.253319
3659.179688	-48.827335
3660.156250	-48.105881
3661.132812	-49.093227
3662.109375	-47.881809
3663.085938	-48.362209
3664.062500	-48.916443
3665.039062	-48.885563
3666.015625	-47.960064
3666.992188	-48.430614
3667.968750	-47.836613
3668.945312	-47.771729
3669.921875	-48.426018
3670.898438	-47.462143
3671.875000	-47.791130
3672.851562	-48.146221
3673.828125	-48.528915
3674.804688	-48.996368
3675.781250	-48.559151
3676.757812	-47.751549
3677.734375	-48.519859
3678.710938	-48.405388
3679.687500	-48.188934
3680.664062	-47.301575
3681.640625	-48.474430
3682.617188	-48.513069
3683.593750	-48.427273
3684.570312	-48.043602
3685.546875	-47.343594
3686.523438	-47.968967
3687.500000	-47.569759
3688.476562	-48.318169
3689.453125	-47.939156
3690.429688	-47.638577
3691.406250	-47.572643
3692.382812	-48.540249
3693.359375	-47.782463
3694.335938	-48.559517
3695.312500	-48.777058
3696.289062	-47.673653
3697.265625	-47.838348
3698.242188	-47.524513
3699.218750	-48.587914
3700.195312	-48.640327
3701.171875	-48.429398
3702.148438	-48.535717
3703.125000	-48.392460
3704.101562	-46.899315
3705.078125	-47.558472
3706.054688	-48.530483
3707.031250	-47.941658
3708.007812	-47.020161
3708.984375	-48.157455
3709.960938	-48.587917
3710.937500	-48.535099
3711.914062	-47.802845
3712.890625	-48.022659
3713.867188	-48.429058
3714.843750	-47.969345
3715.820312	-47.779217
3716.796875	-48.184254
3717.773438	-48.735161
3718.750000	-48.640797
3719.726562	-47.591827
3720.703125	-47.167675
3721.679688	-49.290756
3722.656250	-48.455811
3723.632812	-48.929710
3724.609375	-49.034431
3725.585938	-48.529144
3726.562500	-48.384983
3727.539062	-48.704266
3728.515625	-49.110893
3729.492188	-49.540974
3730.468750	-48.789421
3731.445312	-48.317532
3732.421875	-48.510418
3733.398438	-48.179119
3734.375000	-48.232285
3735.351562	-49.433525
3736.328125	-47.995361
3737.304688	-49.186493
3738.281250	-49.811546
3739.257812	-48.918400
3740.234375	-49.659302
3741.210938	-49.194641
3742.187500	-49.553467
3743.164062	-49.305946
3744.140625	-49.386307
3745.117188	-49.738441
3746.093750	-49.899975
3747.070312	-49.840473
3748.046875	-49.293480
3749.023438	-49.919662
3750.000000	-49.814251
3750.976562	-49.641369
3751.953125	-49.834225
3752.929688	-50.152393
3753.906250	-50.273853
3754.882812	-50.143749
3755.859375	-50.122215
3756.835938	-50.310944
3757.812500	-49.913151
3758.789062	-50.420509
3759.765625	-48.642235
3760.742188	-49.445717
3761.718750	-50.121250
3762.695312	-49.343586
3763.671875	-49.536320
3764.648438	-49.942711
3765.625000	-50.077000
3766.601562	-51.048038
3767.578125	-49.992130
3768.554688	-50.560822
3769.531250	-49.662960
3770.507812	-50.817173
3771.484375	-50.078415
3772.460938	-49.474476
3773.437500	-50.252800
3774.414062	-50.817120
3775.390625	-50.274410
3776.367188	-50.098331
3777.343750	-50.434311
3778.320312	-50.017380
3779.296875	-50.613338
3780.273438	-50.266445
3781.250000	-50.711555
3782.226562	-50.047131
3783.203125	-50.455315
3784.179688	-49.654476
3785.156250	-50.274494
3786.132812	-50.044136
3787.109375	-49.633209
3788.085938	-50.609119
3789.062500	-50.315140
3790.039062	-50.795776
3791.015625	-50.360264
3791.992188	-49.583866
3792.968750	-49.777454
3793.945312	-50.578396
3794.921875	-51.348553
3795.898438	-50.384197
3796.875000	-50.727406
3797.851562	-49.998341
3798.828125	-51.031380
3799.804688	-50.207466
3800.781250	-50.166729
3801.757812	-51.155060
3802.734375	-50.667740
3803.710938	-50.344410
3804.687500	-50.362091
3805.664062	-50.004215
3806.640625	-50.018391
3807.617188	-51.445801
3808.593750	-50.737309
3809.570312	-50.542290
3810.546875	-50.313999
3811.523438	-50.730034
3812.500000	-50.127907
3813.476562	-50.376259
3814.453125	-51.056126
3815.429688	-50.657467
3816.406250	-49.735859
3817.382812	-50.976776
3818.359375	-50.973774
3819.335938	-49.822407
3820.312500	-50.668102
3821.289062	-51.071957
3822.265625	-50.883614
3823.242188	-50.806175
3824.218750	-50.146412
3825.195312	-49.329510
3826.171875	-49.607857
3827.148438	-50.253887
3828.125000	-50.184711
3829.101562	-49.593658
3830.078125	-50.146969
3831.054688	-50.541702
3832.031250	-51.130272
3833.007812	-50.428371
3833.984375	-50.847443
3834.960938	-50.736790
3835.937500	-50.756954
3836.914062	-51.101597
3837.890625	-50.431293
3838.867188	-50.991627
3839.843750	-50.057697
3840.820312	-50.066463
3841.796875	-50.555733
3842.773438	-50.929199
3843.750000	-49.898533
3844.726562	-50.911762
3845.703125	-50.477158
3846.679688	-50.502670
3847.656250	-50.022697
3848.632812	-49.673546
3849.609375	-49.368378
3850.585938	-50.565067
3851.562500	-50.662636
3852.539062	-50.502075
3853.515625	-50.441837
3854.492188	-50.683399
3855.468750	-49.609375
3856.445312	-50.574188
3857.421875	-49.806080
3858.398438	-50.233650
3859.375000	-50.929180
3860.351562	-49.988266
3861.328125	-50.621986
3862.304688	-50.379372
3863.281250	-50.827072
3864.257812	-49.382256
3865.234375	-50.732395
3866.210938	-51.182076
3867.187500	-50.529034
3868.164062	-50.766426
3869.140625	-49.815754
3870.117188	-50.396347
3871.093750	-49.526398
3872.070312	-48.917873
3873.046875	-49.788166
3874.023438	-50.857243
3875.000000	-49.705067
3875.976562	-50.100281
3876.953125	-49.659687
3877.929688	-49.647259
3878.906250	-49.509571
3879.882812	-50.223866
3880.859375	-51.015999
3881.835938	-50.135044
3882.812500	-49.298985
3883.789062	-50.043419
3884.765625	-50.159241
3885.742188	-50.523994
3886.718750	-50.054585
3887.695312	-48.864513
3888.671875	-49.530350
3889.648438	-50.054516
3890.625000	-49.960873
3891.601562	-50.020969
3892.578125	-49.855751
3893.554688	-49.703331
3894.531250	-50.299938
3895.507812	-50.129993
3896.484375	-50.597530
3897.460938	-50.626198
3898.437500	-49.807716
3899.414062	-51.352856
3900.390625	-50.360176
3901.367188	-49.899334
3902.343750	-49.850754
3903.320312	-50.172676
3904.296875	-50.321312
3905.273438	-49.968304
3906.250000	-49.893898
3907.226562	-49.551914
3908.203125	-49.383396
3909.179688	-50.002766
3910.156250	-49.913754
3911.132812	-50.192135
3912.109375	-50.373428
3913.085938	-49.171398
3914.062500	-50.651108
3915.039062	-49.619804
3916.015625	-49.684872
3916.992188	-50.253139
3917.968750	-50.915161
3918.945312	-49.750580
3919.921875	-49.547535
3920.898438	-50.032455
3921.875000	-50.731689
3922.851562	-49.997402
3923.828125	-49.419292
3924.804688	-49.636261
3925.781250	-49.848999
3926.757812	-50.373623
3927.734375	-50.035759
3928.710938	-49.865765
3929.687500	-51.416119
3930.664062	-50.452946
3931.640625	-50.113091
3932.617188	-50.918743
3933.593750	-51.135006
3934.570312	-49.932690
3935.546875	-49.913437
3936.523438	-50.792252
3937.500000	-50.895092
3938.476562	-50.549847
3939.453125	-50.530212
3940.429688	-50.029922
3941.406250	-50.681362
3942.382812	-51.712723
3943.359375	-50.539253
3944.335938	-50.805737
3945.312500	-50.612999
3946.289062	-50.866436
3947.265625	-50.443668
3948.242188	-50.050598
3949.218750	-50.198490
3950.195312	-50.133835
3951.171875	-50.360691
3952.148438	-51.642540
3953.125000	-51.451717
3954.101562	-50.527168
3955.078125	-50.495827
3956.054688	-50.979424
3957.031250	-50.517841
3958.007812	-51.523029
3958.984375	-50.835941
3959.960938	-50.209782
3960.937500	-50.572277
3961.914062	-50.367500
3962.890625	-51.351406
3963.867188	-51.979660
3964.843750	-51.450424
3965.820312	-51.271633
3966.796875	-50.504883
3967.773438	-51.208942
3968.750000	-51.290356
3969.726562	-50.946407
3970.703125	-51.243603
3971.679688	-51.351517
3972.656250	-51.827473
3973.632812	-50.596508
3974.609375	-50.669697
3975.585938	-50.983273
3976.562500	-50.886322
3977.539062	-50.081985
3978.515625	-50.472099
3979.492188	-51.022984
3980.468750	-50.497032
3981.445312	-50.770981
3982.421875	-51.410221
3983.398438	-51.168903
3984.375000	-50.956322
3985.351562	-50.928791
3986.328125	-51.636246
3987.304688	-50.924641
3988.281250	-51.334206
3989.257812	-51.074467
3990.234375	-50.543663
3991.210938	-50.986004
3992.187500	-51.082397
3993.164062	-50.735893
3994.140625	-52.064915
3995.117188	-51.633846
3996.093750	-51.496349
3997.070312	-51.090076
3998.046875	-50.508171
3999.023438	-50.636597
4000.000000	-51.040821
4000.976562	-51.872486
4001.953125	-50.961052
4002.929688	-50.639301
4003.906250	-50.955849
4004.882812	-50.298122
4005.859375	-50.409618
4006.835938	-51.495190
4007.812500	-51.193596
4008.789062	-51.308483
4009.765625	-50.944126
4010.742188	-51.166519
4011.718750	-51.509022
4012.695312	-51.640697
4013.671875	-50.601826
4014.648438	-50.661072
4015.625000	-51.453754
4016.601562	-51.558823
4017.578125	-50.278629
4018.554688	-50.782822
4019.531250	-50.554623
4020.507812	-51.636215
4021.484375	-51.034397
4022.460938	-50.314007
4023.437500	-51.667622
4024.414062	-52.047626
4025.390625	-50.665951
4026.367188	-50.184685
4027.343750	-51.278915
4028.320312	-51.415634
4029.296875	-51.120087
4030.273438	-51.112316
4031.250000	-50.460655
4032.226562	-51.234535
4033.203125	-50.246006
4034.179688	-50.644844
4035.156250	-50.862789
4036.132812	-51.248318
4037.109375	-51.405735
4038.085938	-50.516251
4039.062500	-51.660641
4040.039062	-51.676842
4041.015625	-50.631577
4041.992188	-51.246132
4042.968750	-50.952606
4043.945312	-51.290287
4044.921875	-51.080547
4045.898438	-50.952053
4046.875000	-50.811390
4047.851562	-50.758873
4048.828125	-50.588428
4049.804688	-51.329983
4050.781250	-50.999928
4051.757812	-50.385353
4052.734375	-50.395138
4053.710938	-50.356865
4054.687500	-50.817532
4055.664062	-51.085102
4056.640625	-51.023785
4057.617188	-50.340015
4058.593750	-50.793694
4059.570312	-50.973022
4060.546875	-50.128639
4061.523438	-50.858128
4062.500000	-50.309063
4063.476562	-50.301105
4064.453125	-50.465828
4065.429688	-49.780758
4066.406250	-50.280220
4067.382812	-50.957100
4068.359375	-50.520771
4069.335938	-50.782078
4070.312500	-49.698414
4071.289062	-49.793789
4072.265625	-50.495270
4073.242188	-50.463375
4074.218750	-50.341488
4075.195312	-50.643318
4076.171875	-49.895653
4077.148438	-50.132980
4078.125000	-50.545982
4079.101562	-50.920216
4080.078125	-50.571255
4081.054688	-50.158337
4082.031250	-50.587418
4083.007812	-50.830452
4083.984375	-50.085052
4084.960938	-50.520042
4085.937500	-50.814114
4086.914062	-50.195892
4087.890625	-49.869289
4088.867188	-50.166279
4089.843750	-50.675880
4090.820312	-50.501217
4091.796875	-50.282990
4092.773438	-49.658306
4093.750000	-50.426632
4094.726562	-50.124947
4095.703125	-50.402191
4096.679688	-50.386215
4097.656250	-50.273663
4098.632812	-50.324554
4099.609375	-50.127743
4100.585938	-50.087494
4101.562500	-49.997421
4102.539062	-50.308750
4103.515625	-49.984386
4104.492188	-50.224056
4105.468750	-50.863136
4106.445312	-50.861275
4107.421875	-50.815102
4108.398438	-50.706657
4109.375000	-50.189190
4110.351562	-50.646446
4111.328125	-50.280163
4112.304688	-50.609947
4113.281250	-50.994186
4114.257812	-50.805492
4115.234375	-50.946186
4116.210938	-50.873592
4117.187500	-50.810692
4118.164062	-50.456795
4119.140625	-50.222683
4120.117188	-49.869617
4121.093750	-50.499931
4122.070312	-50.261818
4123.046875	-50.560188
4124.023438	-50.632454
4125.000000	-50.503105
4125.976562	-50.504856
4126.953125	-49.993576
4127.929688	-50.398315
4128.906250	-50.599438
4129.882812	-50.304020
4130.859375	-51.098457
4131.835938	-50.561588
4132.812500	-50.291847
4133.789062	-51.501022
4134.765625	-50.973789
4135.742188	-50.279675
4136.718750	-51.117958
4137.695312	-50.426022
4138.671875	-51.312046
4139.648438	-51.442841
4140.625000	-50.486893
4141.601562	-51.000755
4142.578125	-51.132389
4143.554688	-51.537811
4144.531250	-49.816158
4145.507812	-50.155735
4146.484375	-50.615208
4147.460938	-50.384350
4148.437500	-50.033527
4149.414062	-51.689507
4150.390625	-51.369217
4151.367188	-49.880779
4152.343750	-50.716141
4153.320312	-51.009804
4154.296875	-50.708145
4155.273438	-50.633163
4156.250000	-51.214390
4157.226562	-50.821915
4158.203125	-50.036350
4159.179688	-51.247391
4160.156250	-50.972576
4161.132812	-49.360119
4162.109375	-51.431259
4163.085938	-51.475040
4164.062500	-50.274479
4165.039062	-50.668697
4166.015625	-50.187355
4166.992188	-50.186867
4167.968750	-50.272667
4168.945312	-49.743313
4169.921875	-51.289059
4170.898438	-51.181194
4171.875000	-50.992588
4172.851562	-49.522514
4173.828125	-50.504333
4174.804688	-51.257473
4175.781250	-50.327595
4176.757812	-51.121284
4177.734375	-51.257595
4178.710938	-51.356964
4179.687500	-50.230312
4180.664062	-50.447998
4181.640625	-50.418266
4182.617188	-50.969479
4183.593750	-50.609970
4184.570312	-50.016537
4185.546875	-49.852421
4186.523438	-51.183483
4187.500000	-50.002525
4188.476562	-50.194519
4189.453125	-49.682575
4190.429688	-50.263367
4191.406250	-50.439392
4192.382812	-50.774708
4193.359375	-50.600601
4194.335938	-51.312920
4195.312500	-51.589321
4196.289062	-49.482788
4197.265625	-49.752304
4198.242188	-50.937653
4199.218750	-50.766624
4200.195312	-50.949997
4201.171875	-51.423717
4202.148438	-50.081440
4203.125000	-50.041538
4204.101562	-50.025894
4205.078125	-50.031792
4206.054688	-50.141338
4207.031250	-50.399384
4208.007812	-51.039066
4208.984375	-50.858574
4209.960938	-50.458210
4210.937500	-50.577038
4211.914062	-50.170082
4212.890625	-50.430756
4213.867188	-50.178066
4214.843750	-50.109978
4215.820312	-50.312614
4216.796875	-49.655224
4217.773438	-50.752502
4218.750000	-51.010944
4219.726562	-49.645775
4220.703125	-51.054073
4221.679688	-50.572517
4222.656250	-50.006191
4223.632812	-50.680302
4224.609375	-50.621925
4225.585938	-49.942741
4226.562500	-50.658955
4227.539062	-50.345737
4228.515625	-49.841564
4229.492188	-49.756359
4230.468750	-50.712654
4231.445312	-50.705990
4232.421875	-50.030338
4233.398438	-50.079182
4234.375000	-50.987896
4235.351562	-49.909016
4236.328125	-50.237881
4237.304688	-50.746826
4238.281250	-50.082436
4239.257812	-49.880810
4240.234375	-49.766850
4241.210938	-50.382805
4242.187500	-50.121361
4243.164062	-50.798527
4244.140625	-50.093292
4245.117188	-50.739559
4246.093750	-49.962692
4247.070312	-50.186954
4248.046875	-50.649017
4249.023438	-50.905968
4250.000000	-49.556313
4250.976562	-49.960564
4251.953125	-49.742825
4252.929688	-49.898678
4253.906250	-49.775017
4254.882812	-49.815590
4255.859375	-50.929760
4256.835938	-50.396915
4257.812500	-49.611938
4258.789062	-50.114262
4259.765625	-50.418587
4260.742188	-49.671787
4261.718750	-50.206966
4262.695312	-50.340744
4263.671875	-50.271851
4264.648438	-50.173340
4265.625000	-50.345139
4266.601562	-49.957230
4267.578125	-49.378929
4268.554688	-49.930401
4269.531250	-48.641575
4270.507812	-49.440117
4271.484375	-49.469177
4272.460938	-49.441822
4273.437500	-48.667427
4274.414062	-50.445274
4275.390625	-49.788883
4276.367188	-50.293625
4277.343750	-49.624004
4278.320312	-50.018127
4279.296875	-49.490181
4280.273438	-49.936337
4281.250000	-50.470238
4282.226562	-50.207230
4283.203125	-49.524719
4284.179688	-49.403023
4285.156250	-49.555111
4286.132812	-49.843502
4287.109375	-50.537739
4288.085938	-50.221588
4289.062500	-50.222656
4290.039062	-50.042419
4291.015625	-49.487183
4291.992188	-49.345081
4292.968750	-49.958878
4293.945312	-49.427422
4294.921875	-49.795055
4295.898438	-49.178402
4296.875000	-49.541012
4297.851562	-50.189308
4298.828125	-50.752777
4299.804688	-50.286499
4300.781250	-49.943130
4301.757812	-50.695854
4302.734375	-50.111671
4303.710938	-49.750214
4304.687500	-50.580227
4305.664062	-49.315762
4306.640625	-50.153347
4307.617188	-50.184933
4308.593750	-50.747284
4309.570312	-50.327755
4310.546875	-49.600063
4311.523438	-50.159313
4312.500000	-50.128124
4313.476562	-50.130600
4314.453125	-50.560772
4315.429688	-49.933464
4316.406250	-50.095219
4317.382812	-51.150295
4318.359375	-50.588562
4319.335938	-50.626610
4320.312500	-49.902512
4321.289062	-49.732727
4322.265625	-50.167679
4323.242188	-50.084488
4324.218750	-49.464550
4325.195312	-49.287441
4326.171875	-49.551979
4327.148438	-49.753960
4328.125000	-49.748779
4329.101562	-50.089367
4330.078125	-49.748394
4331.054688	-49.109581
4332.031250	-50.057793
4333.007812	-50.561569
4333.984375	-50.602036
4334.960938	-49.478699
4335.937500	-49.195652
4336.914062	-50.097488
4337.890625	-50.270607
4338.867188	-50.504532
4339.843750	-50.646492
4340.820312	-49.709686
4341.796875	-50.116264
4342.773438	-49.518127
4343.750000	-49.911858
4344.726562	-49.148312
4345.703125	-49.500900
4346.679688	-49.641514
4347.656250	-50.509781
4348.632812	-50.704155
4349.609375	-49.649166
4350.585938	-49.615807
4351.562500	-49.660408
4352.539062	-49.794048
4353.515625	-50.056011
4354.492188	-49.548786
4355.468750	-49.804150
4356.445312	-49.817253
4357.421875	-50.006363
4358.398438	-49.320831
4359.375000	-49.150322
4360.351562	-49.812653
4361.328125	-49.813065
4362.304688	-50.383186
4363.281250	-49.646183
4364.257812	-49.812267
4365.234375	-49.500191
4366.210938	-49.148472
4367.187500	-50.103405
4368.164062	-50.476738
4369.140625	-50.449661
4370.117188	-49.952244
4371.093750	-51.093418
4372.070312	-50.655533
4373.046875	-49.596111
4374.023438	-49.694042
4375.000000	-49.334690
4375.976562	-49.569565
4376.953125	-49.757248
4377.929688	-49.533009
4378.906250	-49.439037
4379.882812	-49.514500
4380.859375	-49.054352
4381.835938	-49.818092
4382.812500	-52.062027
4383.789062	-50.468594
4384.765625	-50.096825
4385.742188	-50.092754
4386.718750	-50.046989
4387.695312	-49.327175
4388.671875	-49.584484
4389.648438	-49.783272
4390.625000	-49.678375
4391.601562	-49.680073
4392.578125	-48.757584
4393.554688	-49.612492
4394.531250	-49.430386
4395.507812	-49.921013
4396.484375	-49.903286
4397.460938	-49.339203
4398.437500	-49.859375
4399.414062	-49.577198
4400.390625	-49.254810
4401.367188	-50.162155
4402.343750	-49.253387
4403.320312	-48.895664
4404.296875	-50.079060
4405.273438	-49.317608
4406.250000	-49.801594
4407.226562	-49.659248
4408.203125	-49.792267
4409.179688	-49.367329
4410.156250	-49.307117
4411.132812	-48.915512
4412.109375	-49.659191
4413.085938	-48.768829
4414.062500	-49.309361
4415.039062	-50.527840
4416.015625	-49.832867
4416.992188	-49.026928
4417.968750	-49.099377
4418.945312	-49.839207
4419.921875	-49.395374
4420.898438	-49.247093
4421.875000	-49.589714
4422.851562	-48.690014
4423.828125	-49.955669
4424.804688	-50.558323
4425.781250	-50.299694
4426.757812	-49.252773
4427.734375	-49.436733
4428.710938	-49.327595
4429.687500	-49.359421
4430.664062	-48.793877
4431.640625	-49.643448
4432.617188	-48.981152
4433.593750	-49.923618
4434.570312	-50.005703
4435.546875	-49.132870
4436.523438	-49.688637
4437.500000	-48.723225
4438.476562	-50.033218
4439.453125	-49.297146
4440.429688	-49.613029
4441.406250	-49.460056
4442.382812	-49.376274
4443.359375	-48.929012
4444.335938	-48.360989
4445.312500	-50.215881
4446.289062	-50.006653
4447.265625	-49.884254
4448.242188	-50.057312
4449.218750	-49.157509
4450.195312	-49.148624
4451.171875	-49.648865
4452.148438	-49.896420
4453.125000	-50.346909
4454.101562	-50.079742
4455.078125	-48.917927
4456.054688	-49.329811
4457.031250	-49.845467
4458.007812	-49.864933
4458.984375	-49.385647
4459.960938	-50.009674
4460.937500	-49.699039
4461.914062	-48.866547
4462.890625	-49.305206
4463.867188	-49.778519
4464.843750	-49.238865
4465.820312	-49.053005
4466.796875	-50.070610
4467.773438	-49.859764
4468.750000	-49.718407
4469.726562	-49.571236
4470.703125	-49.281414
4471.679688	-50.574322
4472.656250	-49.862331
4473.632812	-49.428368
4474.609375	-49.435734
4475.585938	-49.647396
4476.562500	-50.014469
4477.539062	-49.387142
4478.515625	-49.165401
4479.492188	-49.896568
4480.468750	-49.737286
4481.445312	-48.994244
4482.421875	-50.120724
4483.398438	-50.284351
4484.375000	-49.902760
4485.351562	-49.805168
4486.328125	-48.858864
4487.304688	-49.409294
4488.281250	-49.842857
4489.257812	-49.920300
4490.234375	-50.535892
4491.210938	-50.383968
4492.187500	-49.223759
4493.164062	-49.254574
4494.140625	-49.541195
4495.117188	-50.150051
4496.093750	-49.729984
4497.070312	-49.856243
4498.046875	-49.263153
4499.023438	-48.804295
4500.000000	-49.607559
4500.976562	-50.406620
4501.953125	-50.184284
4502.929688	-49.096188
4503.906250	-49.579964
4504.882812	-49.934429
4505.859375	-49.496731
4506.835938	-49.657257
4507.812500	-49.982586
4508.789062	-49.858719
4509.765625	-49.354027
4510.742188	-50.046242
4511.718750	-49.927128
4512.695312	-49.965958
4513.671875	-50.370457
4514.648438	-50.033813
4515.625000	-50.800503
4516.601562	-50.368046
4517.578125	-49.331409
4518.554688	-50.366116
4519.531250	-49.638660
4520.507812	-49.444000
4521.484375	-50.201286
4522.460938	-49.712517
4523.437500	-49.731289
4524.414062	-49.565929
4525.390625	-49.916199
4526.367188	-49.899101
4527.343750	-49.572567
4528.320312	-50.339760
4529.296875	-49.328148
4530.273438	-49.635490
4531.250000	-50.634480
4532.226562	-49.548870
4533.203125	-50.317539
4534.179688	-49.681141
4535.156250	-49.532043
4536.132812	-50.204826
4537.109375	-50.071098
4538.085938	-49.748283
4539.062500	-49.695335
4540.039062	-49.635475
4541.015625	-49.771744
4541.992188	-49.544834
4542.968750	-49.603134
4543.945312	-50.579845
4544.921875	-49.902180
4545.898438	-48.619713
4546.875000	-50.150528
4547.851562	-49.327961
4548.828125	-50.448303
4549.804688	-49.689953
4550.781250	-50.149723
4551.757812	-50.082298
4552.734375	-50.914764
4553.710938	-51.084885
4554.687500	-50.145004
4555.664062	-50.504475
4556.640625	-49.926414
4557.617188	-49.808113
4558.593750	-49.414772
4559.570312	-49.655048
4560.546875	-49.655060
4561.523438	-50.352974
4562.500000	-49.744289
4563.476562	-50.605011
4564.453125	-50.432560
4565.429688	-49.883686
4566.406250	-50.178513
4567.382812	-50.056892
4568.359375	-49.745918
4569.335938	-49.849186
4570.312500	-49.706532
4571.289062	-50.871708
4572.265625	-49.712997
4573.242188	-50.601128
4574.218750	-49.986382
4575.195312	-50.059513
4576.171875	-49.526737
4577.148438	-49.670094
4578.125000	-50.030865
4579.101562	-49.911076
4580.078125	-49.277660
4581.054688	-49.708973
4582.031250	-49.910633
4583.007812	-50.043789
4583.984375	-50.752510
4584.960938	-49.845062
4585.937500	-50.191109
4586.914062	-49.206196
4587.890625	-49.842426
4588.867188	-49.324070
4589.843750	-50.233727
4590.820312	-49.636963
4591.796875	-50.258633
4592.773438	-51.103024
4593.750000	-49.766937
4594.726562	-49.542793
4595.703125	-49.820065
4596.679688	-50.325710
4597.656250	-48.673153
4598.632812	-49.592216
4599.609375	-49.889908
4600.585938	-49.692554
4601.562500	-50.000763
4602.539062	-49.937077
4603.515625	-51.409077
4604.492188	-50.129246
4605.468750	-49.142353
4606.445312	-49.481865
4607.421875	-50.222801
4608.398438	-50.107689
4609.375000	-49.177357
4610.351562	-49.083076
4611.328125	-49.773067
4612.304688	-48.930996
4613.281250	-49.999825
4614.257812	-50.912140
4615.234375	-50.066662
4616.210938	-49.358925
4617.187500	-49.713181
4618.164062	-49.888111
4619.140625	-50.353718
4620.117188	-49.433529
4621.093750	-49.831059
4622.070312	-49.986832
4623.046875	-49.378761
4624.023438	-49.048553
4625.000000	-49.604427
4625.976562	-49.619186
4626.953125	-49.630985
4627.929688	-49.313084
4628.906250	-49.550438
4629.882812	-49.858574
4630.859375	-49.080921
4631.835938	-49.226089
4632.812500	-50.000061
4633.789062	-50.393497
4634.765625	-49.566730
4635.742188	-49.820950
4636.718750	-49.327606
4637.695312	-49.411568
4638.671875	-50.012733
4639.648438	-48.839771
4640.625000	-50.052967
4641.601562	-49.408165
4642.578125	-50.199741
4643.554688	-49.703289
4644.531250	-50.046715
4645.507812	-49.953049
4646.484375	-49.216290
4647.460938	-49.899246
4648.437500	-50.599895
4649.414062	-49.677464
4650.390625	-49.118237
4651.367188	-48.756451
4652.343750	-49.771278
4653.320312	-49.644112
4654.296875	-49.614464
4655.273438	-48.852386
4656.250000	-49.271503
4657.226562	-49.208637
4658.203125	-49.972504
4659.179688	-49.243473
4660.156250	-48.956421
4661.132812	-49.865524
4662.109375	-49.588295
4663.085938	-49.786251
4664.062500	-48.499279
4665.039062	-49.232670
4666.015625	-49.283875
4666.992188	-49.945923
4667.968750	-49.248898
4668.945312	-48.836552
4669.921875	-50.480625
4670.898438	-50.216782
4671.875000	-49.765179
4672.851562	-49.796047
4673.828125	-49.914932
4674.804688	-49.960320
4675.781250	-49.912067
4676.757812	-49.005730
4677.734375	-50.360863
4678.710938	-49.512665
4679.687500	-48.879131
4680.664062	-49.138805
4681.640625	-49.511196
4682.617188	-49.378258
4683.593750	-49.415184
4684.570312	-49.997215
4685.546875	-48.818111
4686.523438	-49.419510
4687.500000	-49.311501
4688.476562	-50.030788
4689.453125	-49.821247
4690.429688	-50.384888
4691.406250	-50.490128
4692.382812	-50.689060
4693.359375	-50.293335
4694.335938	-49.081940
4695.312500	-49.317741
4696.289062	-49.490707
4697.265625	-49.961720
4698.242188	-49.468334
4699.218750	-49.753620
4700.195312	-49.710766
4701.171875	-49.711800
4702.148438	-49.505276
4703.125000	-49.140141
4704.101562	-48.807884
4705.078125	-49.017693
4706.054688	-49.053493
4707.031250	-49.967987
4708.007812	-49.669762
4708.984375	-49.250214
4709.960938	-51.059025
4710.937500	-49.495483
4711.914062	-49.499237
4712.890625	-48.861813
4713.867188	-49.933037
4714.843750	-49.643875
4715.820312	-49.678997
4716.796875	-49.969193
4717.773438	-49.736725
4718.750000	-49.659477
4719.726562	-50.119003
4720.703125	-50.234867
4721.679688	-50.146389
4722.656250	-49.176491
4723.632812	-49.873878
4724.609375	-49.683235
4725.585938	-49.839771
4726.562500	-50.259346
4727.539062	-50.087250
4728.515625	-49.822037
4729.492188	-48.941128
4730.468750	-50.037014
4731.445312	-50.116970
4732.421875	-50.828453
4733.398438	-49.124413
4734.375000	-49.571308
4735.351562	-50.646587
4736.328125	-50.355965
4737.304688	-49.707989
4738.281250	-50.059364
4739.257812	-50.022041
4740.234375	-49.652508
4741.210938	-50.534492
4742.187500	-49.601757
4743.164062	-49.784939
4744.140625	-49.810585
4745.117188	-49.120445
4746.093750	-49.574654
4747.070312	-49.998505
4748.046875	-50.037804
4749.023438	-49.820690
4750.000000	-50.121941
4750.976562	-50.404339
4751.953125	-50.081524
4752.929688	-49.634991
4753.906250	-49.930363
4754.882812	-50.393734
4755.859375	-50.142769
4756.835938	-49.863216
4757.812500	-49.951988
4758.789062	-50.550308
4759.765625	-50.413292
4760.742188	-49.968857
4761.718750	-50.785774
4762.695312	-50.475494
4763.671875	-49.786621
4764.648438	-49.590923
4765.625000	-49.712765
4766.601562	-49.408504
4767.578125	-50.590946
4768.554688	-50.177212
4769.531250	-50.105335
4770.507812	-49.649029
4771.484375	-49.252995
4772.460938	-49.649590
4773.437500	-49.860180
4774.414062	-49.754574
4775.390625	-48.617229
4776.367188	-49.277107
4777.343750	-50.511456
4778.320312	-49.956516
4779.296875	-49.913528
4780.273438	-50.517445
4781.250000	-50.315140
4782.226562	-50.238655
4783.203125	-49.676022
4784.179688	-49.740757
4785.156250	-49.429417
4786.132812	-49.169315
4787.109375	-50.276512
4788.085938	-49.235390
4789.062500	-48.754284
4790.039062	-49.178673
4791.015625	-49.615578
4791.992188	-50.114693
4792.968750	-49.562210
4793.945312	-49.225060
4794.921875	-49.847771
4795.898438	-49.649944
4796.875000	-49.753838
4797.851562	-50.096004
4798.828125	-49.376991
4799.804688	-48.059807
4800.781250	-48.861439
4801.757812	-49.497192
4802.734375	-49.658421
4803.710938	-50.371468
4804.687500	-49.479458
4805.664062	-50.068943
4806.640625	-49.070133
4807.617188	-49.900238
4808.593750	-50.078865
4809.570312	-50.761986
4810.546875	-50.739967
4811.523438	-50.140167
4812.500000	-50.365685
4813.476562	-49.489601
4814.453125	-50.218655
4815.429688	-50.100277
4816.406250	-48.567345
4817.382812	-49.686695
4818.359375	-49.616096
4819.335938	-50.364975
4820.312500	-50.072346
4821.289062	-49.572826
4822.265625	-49.890938
4823.242188	-49.791996
4824.218750	-49.949173
4825.195312	-50.748257
4826.171875	-49.260994
4827.148438	-50.317291
4828.125000	-49.298679
4829.101562	-49.420410
4830.078125	-49.996693
4831.054688	-50.064022
4832.031250	-49.637371
4833.007812	-49.683804
4833.984375	-50.070885
4834.960938	-50.331379
4835.937500	-50.621075
4836.914062	-50.169186
4837.890625	-49.304424
4838.867188	-49.927425
4839.843750	-50.106495
4840.820312	-49.772480
4841.796875	-50.751484
4842.773438	-50.013859
4843.750000	-49.566605
4844.726562	-50.317196
4845.703125	-50.267700
4846.679688	-49.698673
4847.656250	-50.351833
4848.632812	-49.338078
4849.609375	-50.169445
4850.585938	-50.682430
4851.562500	-49.728901
4852.539062	-50.940411
4853.515625	-50.493404
4854.492188	-50.670586
4855.468750	-50.450962
4856.445312	-50.339493
4857.421875	-50.901451
4858.398438	-50.382877
4859.375000	-50.128418
4860.351562	-50.270271
4861.328125	-50.410595
4862.304688	-50.307037
4863.281250	-50.170944
4864.257812	-49.656223
4865.234375	-51.037018
4866.210938	-49.962547
4867.187500	-50.617840
4868.164062	-51.190212
4869.140625	-50.495918
4870.117188	-50.043228
4871.093750	-50.168262
4872.070312	-49.748486
4873.046875	-50.259857
4874.023438	-51.234482
4875.000000	-50.624763
4875.976562	-50.088924
4876.953125	-49.457737
4877.929688	-50.836971
4878.906250	-50.549755
4879.882812	-50.231495
4880.859375	-50.279388
4881.835938	-50.390331
4882.812500	-50.674637
4883.789062	-49.941025
4884.765625	-50.291122
4885.742188	-51.390873
4886.718750	-50.879719
4887.695312	-50.504509
4888.671875	-50.604126
4889.648438	-49.878136
4890.625000	-49.716709
4891.601562	-50.976337
4892.578125	-50.718510
4893.554688	-50.267315
4894.531250	-50.856441
4895.507812	-50.596146
4896.484375	-49.864765
4897.460938	-50.118546
4898.437500	-49.629246
4899.414062	-50.440899
4900.390625	-50.621353
4901.367188	-50.264545
4902.343750	-49.776672
4903.320312	-50.815109
4904.296875	-50.905632
4905.273438	-49.661041
4906.250000	-49.768837
4907.226562	-50.019478
4908.203125	-51.345173
4909.179688	-50.119293
4910.156250	-51.262299
4911.132812	-50.390026
4912.109375	-51.219196
4913.085938	-50.517456
4914.062500	-50.294353
4915.039062	-50.943558
4916.015625	-50.897762
4916.992188	-50.392738
4917.968750	-50.474274
4918.945312	-49.930771
4919.921875	-50.156940
4920.898438	-49.525799
4921.875000	-49.889969
4922.851562	-50.675819
4923.828125	-50.634075
4924.804688	-50.235767
4925.781250	-50.243694
4926.757812	-50.419884
4927.734375	-50.290436
4928.710938	-49.351749
4929.687500	-50.336823
4930.664062	-50.085651
4931.640625	-50.163357
4932.617188	-49.658562
4933.593750	-50.345814
4934.570312	-50.069115
4935.546875	-50.404968
4936.523438	-50.331635
4937.500000	-50.740395
4938.476562	-49.943684
4939.453125	-50.390175
4940.429688	-49.551323
4941.406250	-51.259838
4942.382812	-50.723972
4943.359375	-50.193027
4944.335938	-49.657280
4945.312500	-50.083530
4946.289062	-49.755642
4947.265625	-50.019779
4948.242188	-49.810741
4949.218750	-49.698460
4950.195312	-50.733334
4951.171875	-49.967106
4952.148438	-50.012535
4953.125000	-50.556458
4954.101562	-50.905865
4955.078125	-50.283722
4956.054688	-49.916500
4957.031250	-50.355812
4958.007812	-51.273884
4958.984375	-50.112408
4959.960938	-49.904087
4960.937500	-49.391163
4961.914062	-49.430424
4962.890625	-50.602497
4963.867188	-49.799515
4964.843750	-49.477253
4965.820312	-49.644123
4966.796875	-49.679176
4967.773438	-49.849957
4968.750000	-50.155361
4969.726562	-49.841679
4970.703125	-49.643402
4971.679688	-50.452511
4972.656250	-50.204243
4973.632812	-49.856762
4974.609375	-49.245781
4975.585938	-50.130348
4976.562500	-50.066959
4977.539062	-50.524197
4978.515625	-50.053493
4979.492188	-50.672276
4980.468750	-50.586586
4981.445312	-50.202747
4982.421875	-49.983753
4983.398438	-50.999763
4984.375000	-50.343964
4985.351562	-49.365681
4986.328125	-50.132858
4987.304688	-49.384380
4988.281250	-49.487469
4989.257812	-50.272675
4990.234375	-49.917042
4991.210938	-49.055702
4992.187500	-49.673740
4993.164062	-49.769245
4994.140625	-49.208534
4995.117188	-50.092377
4996.093750	-50.043442
4997.070312	-51.145779
4998.046875	-50.171432
4999.023438	-49.590023
5000.000000	-50.601109
5000.976562	-49.232517
5001.953125	-50.037949
5002.929688	-49.388851
5003.906250	-48.702389
5004.882812	-49.345737
5005.859375	-49.687229
5006.835938	-50.465897
5007.812500	-50.946064
5008.789062	-49.456902
5009.765625	-49.201511
5010.742188	-49.733727
5011.718750	-49.770809
5012.695312	-49.582775
5013.671875	-49.897160
5014.648438	-49.289513
5015.625000	-49.413002
5016.601562	-49.105415
5017.578125	-50.084682
5018.554688	-48.901707
5019.531250	-49.590752
5020.507812	-50.336220
5021.484375	-49.481197
5022.460938	-49.535381
5023.437500	-50.080956
5024.414062	-49.529655
5025.390625	-49.924244
5026.367188	-49.547073
5027.343750	-49.154125
5028.320312	-49.796967
5029.296875	-50.519596
5030.273438	-50.168095
5031.250000	-50.787727
5032.226562	-49.412788
5033.203125	-50.205147
5034.179688	-49.079601
5035.156250	-50.164337
5036.132812	-49.994419
5037.109375	-49.709431
5038.085938	-50.283611
5039.062500	-50.408928
5040.039062	-49.487251
5041.015625	-49.464554
5041.992188	-49.483101
5042.968750	-49.882160
5043.945312	-49.657310
5044.921875	-49.355713
5045.898438	-49.747856
5046.875000	-49.445908
5047.851562	-50.410488
5048.828125	-50.112259
5049.804688	-50.545547
5050.781250	-49.914276
5051.757812	-50.255497
5052.734375	-49.356571
5053.710938	-49.297855
5054.687500	-49.433681
5055.664062	-49.840622
5056.640625	-50.463715
5057.617188	-50.256729
5058.593750	-50.682865
5059.570312	-50.699512
5060.546875	-50.436535
5061.523438	-50.166679
5062.500000	-50.563923
5063.476562	-50.271996
5064.453125	-50.749722
5065.429688	-49.828064
5066.406250	-51.306885
5067.382812	-51.135826
5068.359375	-50.685871
5069.335938	-51.249500
5070.312500	-51.256584
5071.289062	-51.350014
5072.265625	-49.874237
5073.242188	-49.696087
5074.218750	-50.115147
5075.195312	-50.399033
5076.171875	-50.360497
5077.148438	-51.036484
5078.125000	-50.827686
5079.101562	-50.456814
5080.078125	-49.068211
5081.054688	-49.834450
5082.031250	-49.960594
5083.007812	-49.836830
5083.984375	-50.327839
5084.960938	-50.696190
5085.937500	-50.769463
5086.914062	-49.974674
5087.890625	-50.225395
5088.867188	-51.524239
5089.843750	-51.036209
5090.820312	-50.164021
5091.796875	-50.129616
5092.773438	-50.375572
5093.750000	-50.258118
5094.726562	-49.693165
5095.703125	-50.717838
5096.679688	-50.685928
5097.656250	-51.008694
5098.632812	-50.073582
5099.609375	-50.675072
5100.585938	-49.767906
5101.562500	-49.683311
5102.539062	-49.148201
5103.515625	-50.010593
5104.492188	-49.606339
5105.468750	-49.923851
5106.445312	-49.785759
5107.421875	-50.529263
5108.398438	-48.969891
5109.375000	-48.879807
5110.351562	-49.441719
5111.328125	-50.187157
5112.304688	-49.849709
5113.281250	-49.871758
5114.257812	-48.833046
5115.234375	-49.993786
5116.210938	-49.271839
5117.187500	-50.730957
5118.164062	-50.857445
5119.140625	-50.482742
5120.117188	-50.139122
5121.093750	-50.822426
5122.070312	-49.928226
5123.046875	-49.981190
5124.023438	-50.547043
5125.000000	-50.231201
5125.976562	-49.924614
5126.953125	-49.983501
5127.929688	-50.139843
5128.906250	-50.816940
5129.882812	-50.391132
5130.859375	-50.902855
5131.835938	-50.057171
5132.812500	-49.393398
5133.789062	-50.343655
5134.765625	-49.444332
5135.742188	-49.111366
5136.718750	-49.036827
5137.695312	-50.292389
5138.671875	-50.939140
5139.648438	-51.413391
5140.625000	-50.194748
5141.601562	-50.092026
5142.578125	-49.868755
5143.554688	-49.601105
5144.531250	-50.054321
5145.507812	-49.682991
5146.484375	-49.668808
5147.460938	-49.595089
5148.437500	-49.775059
5149.414062	-50.308025
5150.390625	-49.638386
5151.367188	-49.793659
5152.343750	-49.962051
5153.320312	-49.468327
5154.296875	-49.062786
5155.273438	-48.937160
5156.250000	-49.198082
5157.226562	-49.517834
5158.203125	-49.006794
5159.179688	-48.650120
5160.156250	-49.345909
5161.132812	-49.231491
5162.109375	-49.503162
5163.085938	-49.281525
5164.062500	-49.004658
5165.039062	-49.540207
5166.015625	-49.667336
5166.992188	-48.994499
5167.968750	-48.848183
5168.945312	-49.139484
5169.921875	-50.127460
5170.898438	-50.031010
5171.875000	-49.740795
5172.851562	-49.010269
5173.828125	-49.153481
5174.804688	-49.340248
5175.781250	-49.073574
5176.757812	-49.204002
5177.734375	-49.719986
5178.710938	-49.577972
5179.687500	-48.008446
5180.664062	-49.550636
5181.640625	-49.779903
5182.617188	-48.836914
5183.593750	-48.637367
5184.570312	-48.417458
5185.546875	-47.715851
5186.523438	-48.814098
5187.500000	-49.558376
5188.476562	-49.627552
5189.453125	-49.136871
5190.429688	-48.559048
5191.406250	-48.833622
5192.382812	-48.359715
5193.359375	-48.006672
5194.335938	-49.253979
5195.312500	-48.931553
5196.289062	-48.539612
5197.265625	-49.023418
5198.242188	-48.962948
5199.218750	-49.178780
5200.195312	-49.060944
5201.171875	-48.742355
5202.148438	-49.004990
5203.125000	-49.709873
5204.101562	-48.567390
5205.078125	-49.475693
5206.054688	-49.413498
5207.031250	-49.724625
5208.007812	-49.144211
5208.984375	-49.953953
5209.960938	-49.389679
5210.937500	-49.100410
5211.914062	-48.476021
5212.890625	-48.629166
5213.867188	-49.607220
5214.843750	-50.200340
5215.820312	-49.804173
5216.796875	-49.812965
5217.773438	-49.277473
5218.750000	-49.164474
5219.726562	-49.601044
5220.703125	-49.483654
5221.679688	-49.661304
5222.656250	-49.606869
5223.632812	-49.574181
5224.609375	-49.433083
5225.585938	-49.737843
5226.562500	-49.237179
5227.539062	-49.665844
5228.515625	-49.132759
5229.492188	-49.596737
5230.468750	-50.282337
5231.445312	-50.631905
5232.421875	-50.728424
5233.398438	-50.085278
5234.375000	-50.164921
5235.351562	-49.671383
5236.328125	-49.986195
5237.304688	-49.615303
5238.281250	-49.701965
5239.257812	-50.100086
5240.234375	-50.769337
5241.210938	-50.823597
5242.187500	-50.097343
5243.164062	-50.290752
5244.140625	-50.417797
5245.117188	-51.074131
5246.093750	-50.516350
5247.070312	-50.782879
5248.046875	-50.124893
5249.023438	-49.147999
5250.000000	-49.049847
5250.976562	-49.979557
5251.953125	-49.749065
5252.929688	-49.721073
5253.906250	-49.324982
5254.882812	-50.068516
5255.859375	-50.513039
5256.835938	-50.919056
5257.812500	-51.192329
5258.789062	-51.180481
5259.765625	-51.055500
5260.742188	-50.886112
5261.718750	-50.059528
5262.695312	-51.730129
5263.671875	-50.943352
5264.648438	-50.754486
5265.625000	-50.366344
5266.601562	-50.774601
5267.578125	-51.547340
5268.554688	-51.055065
5269.531250	-50.844929
5270.507812	-50.173428
5271.484375	-51.362537
5272.460938	-50.951801
5273.437500	-50.936234
5274.414062	-50.053753
5275.390625	-50.064003
5276.367188	-50.291302
5277.343750	-50.730434
5278.320312	-49.634506
5279.296875	-49.987129
5280.273438	-49.570965
5281.250000	-49.304249
5282.226562	-49.758488
5283.203125	-49.954613
5284.179688	-49.986938
5285.156250	-50.164948
5286.132812	-51.379700
5287.109375	-49.467579
5288.085938	-50.044159
5289.062500	-50.064663
5290.039062	-49.861282
5291.015625	-50.072132
5291.992188	-49.790417
5292.968750	-49.865871
5293.945312	-50.559044
5294.921875	-50.619892
5295.898438	-50.316647
5296.875000	-50.122742
5297.851562	-50.342834
5298.828125	-50.500717
5299.804688	-50.622612
5300.781250	-50.012527
5301.757812	-49.793056
5302.734375	-51.048424
5303.710938	-49.707664
5304.687500	-50.595257
5305.664062	-50.105598
5306.640625	-50.422520
5307.617188	-50.230595
5308.593750	-50.670349
5309.570312	-50.702332
5310.546875	-50.536892
5311.523438	-51.219204
5312.500000	-50.143902
5313.476562	-50.645733
5314.453125	-49.761845
5315.429688	-49.567955
5316.406250	-49.304405
5317.382812	-49.712624
5318.359375	-49.834568
5319.335938	-50.424572
5320.312500	-50.485256
5321.289062	-50.320206
5322.265625	-50.416683
5323.242188	-49.234020
5324.218750	-50.018295
5325.195312	-50.314457
5326.171875	-49.859207
5327.148438	-49.547188
5328.125000	-49.675694
5329.101562	-49.897079
5330.078125	-49.969276
5331.054688	-50.196712
5332.031250	-50.587040
5333.007812	-50.626293
5333.984375	-49.568363
5334.960938	-49.370617
5335.937500	-49.079182
5336.914062	-49.030704
5337.890625	-49.701019
5338.867188	-49.449203
5339.843750	-49.655418
5340.820312	-50.003777
5341.796875	-50.057663
5342.773438	-49.127640
5343.750000	-49.499313
5344.726562	-50.230713
5345.703125	-49.564140
5346.679688	-49.173798
5347.656250	-49.171455
5348.632812	-48.568886
5349.609375	-48.822773
5350.585938	-49.280659
5351.562500	-49.812939
5352.539062	-48.701866
5353.515625	-49.714176
5354.492188	-50.089142
5355.468750	-48.935654
5356.445312	-48.143185
5357.421875	-48.566151
5358.398438	-49.315208
5359.375000	-48.584225
5360.351562	-48.760479
5361.328125	-48.390358
5362.304688	-48.396152
5363.281250	-48.931400
5364.257812	-48.807060
5365.234375	-48.792446
5366.210938	-49.129890
5367.187500	-48.955875
5368.164062	-49.662926
5369.140625	-47.299671
5370.117188	-49.250565
5371.093750	-49.053852
5372.070312	-48.765553
5373.046875	-48.872887
5374.023438	-49.131454
5375.000000	-48.673168
5375.976562	-48.440758
5376.953125	-49.404709
5377.929688	-49.653458
5378.906250	-48.715347
5379.882812	-48.010994
5380.859375	-47.367496
5381.835938	-49.901905
5382.812500	-47.710567
5383.789062	-48.491623
5384.765625	-46.888897
5385.742188	-47.057980
5386.718750	-48.788017
5387.695312	-48.742748
5388.671875	-48.337887
5389.648438	-49.099075
5390.625000	-49.190029
5391.601562	-50.314049
5392.578125	-49.217922
5393.554688	-48.089375
5394.531250	-49.255871
5395.507812	-49.518055
5396.484375	-49.434429
5397.460938	-49.034843
5398.437500	-48.409592
5399.414062	-48.653934
5400.390625	-49.396626
5401.367188	-48.889301
5402.343750	-48.774223
5403.320312	-48.876278
5404.296875	-49.093132
5405.273438	-48.362778
5406.250000	-48.427422
5407.226562	-47.732174
5408.203125	-47.989471
5409.179688	-49.223392
5410.156250	-48.153610
5411.132812	-48.707859
5412.109375	-47.725193
5413.085938	-48.915237
5414.062500	-49.398296
5415.039062	-49.166042
5416.015625	-48.483944
5416.992188	-48.972832
5417.968750	-50.021683
5418.945312	-48.403664
5419.921875	-49.303249
5420.898438	-49.414246
5421.875000	-49.961830
5422.851562	-50.175777
5423.828125	-48.898029
5424.804688	-49.714447
5425.781250	-49.222015
5426.757812	-50.114712
5427.734375	-49.883759
5428.710938	-51.228138
5429.687500	-50.143711
5430.664062	-50.726418
5431.640625	-49.869934
5432.617188	-49.355095
5433.593750	-49.055119
5434.570312	-49.558743
5435.546875	-50.779194
5436.523438	-51.099358
5437.500000	-49.352760
5438.476562	-48.193359
5439.453125	-48.970333
5440.429688	-50.490730
5441.406250	-50.729954
5442.382812	-50.220722
5443.359375	-50.936596
5444.335938	-50.738300
5445.312500	-50.782303
5446.289062	-50.855862
5447.265625	-51.046585
5448.242188	-50.438389
5449.218750	-49.844162
5450.195312	-49.739227
5451.171875	-49.654724
5452.148438	-50.839565
5453.125000	-50.583500
5454.101562	-49.632126
5455.078125	-50.157894
5456.054688	-49.908020
5457.031250	-49.831036
5458.007812	-50.318378
5458.984375	-50.224701
5459.960938	-50.052189
5460.937500	-51.266850
5461.914062	-50.758064
5462.890625	-50.661480
5463.867188	-49.801346
5464.843750	-50.440380
5465.820312	-51.614029
5466.796875	-50.142529
5467.773438	-50.061646
5468.750000	-50.120350
5469.726562	-49.833004
5470.703125	-49.308739
5471.679688	-50.805683
5472.656250	-50.814388
5473.632812	-49.944500
5474.609375	-49.931866
5475.585938	-48.639889
5476.562500	-49.164688
5477.539062	-49.963066
5478.515625	-50.975483
5479.492188	-51.039959
5480.468750	-50.945694
5481.445312	-50.453526
5482.421875	-49.990917
5483.398438	-50.241188
5484.375000	-50.539429
5485.351562	-50.384373
5486.328125	-50.804031
5487.304688	-51.405731
5488.281250	-51.110317
5489.257812	-49.361603
5490.234375	-50.082832
5491.210938	-50.909786
5492.187500	-50.730385
5493.164062	-49.699455
5494.140625	-49.283073
5495.117188	-49.181034
5496.093750	-49.193420
5497.070312	-50.653812
5498.046875	-50.305538
5499.023438	-50.729782
5500.000000	-50.483528
5500.976562	-50.388523
5501.953125	-50.727055
5502.929688	-50.891083
5503.906250	-49.978783
5504.882812	-50.878929
5505.859375	-50.636860
5506.835938	-51.216484
5507.812500	-50.241760
5508.789062	-50.098618
5509.765625	-48.957619
5510.742188	-49.705807
5511.718750	-50.692955
5512.695312	-50.738018
5513.671875	-50.155228
5514.648438	-48.788128
5515.625000	-47.915150
5516.601562	-49.159805
5517.578125	-50.236671
5518.554688	-50.255627
5519.531250	-49.990307
5520.507812	-49.492413
5521.484375	-50.273266
5522.460938	-50.858509
5523.437500	-49.457146
5524.414062	-49.272522
5525.390625	-49.983356
5526.367188	-49.908867
5527.343750	-49.791603
5528.320312	-49.875050
5529.296875	-49.320267
5530.273438	-49.517921
5531.250000	-50.474922
5532.226562	-49.933273
5533.203125	-49.731579
5534.179688	-48.998535
5535.156250	-48.963783
5536.132812	-49.010571
5537.109375	-49.364140
5538.085938	-50.651409
5539.062500	-49.784107
5540.039062	-49.880409
5541.015625	-49.695824
5541.992188	-49.250431
5542.968750	-48.949894
5543.945312	-50.150997
5544.921875	-50.141392
5545.898438	-49.041725
5546.875000	-49.045597
5547.851562	-48.788372
5548.828125	-49.194641
5549.804688	-49.362007
5550.781250	-50.230717
5551.757812	-48.942669
5552.734375	-48.306679
5553.710938	-47.842159
5554.687500	-49.353939
5555.664062	-49.005531
5556.640625	-49.839073
5557.617188	-50.517433
5558.593750	-48.749340
5559.570312	-47.946228
5560.546875	-49.421562
5561.523438	-48.531319
5562.500000	-48.364365
5563.476562	-49.239227
5564.453125	-50.056248
5565.429688	-49.292072
5566.406250	-49.114231
5567.382812	-47.936481
5568.359375	-48.781597
5569.335938	-47.997314
5570.312500	-48.648060
5571.289062	-48.934738
5572.265625	-47.768559
5573.242188	-47.861431
5574.218750	-49.949635
5575.195312	-49.198414
5576.171875	-47.268288
5577.148438	-48.802303
5578.125000	-48.830204
5579.101562	-49.584827
5580.078125	-48.774666
5581.054688	-47.786587
5582.031250	-48.885674
5583.007812	-48.310837
5583.984375	-48.834923
5584.960938	-49.050686
5585.937500	-47.442268
5586.914062	-48.088177
5587.890625	-49.590611
5588.867188	-50.175663
5589.843750	-49.600391
5590.820312	-50.358742
5591.796875	-50.203659
5592.773438	-47.971420
5593.750000	-47.112652
5594.726562	-48.872261
5595.703125	-48.953251
5596.679688	-48.695225
5597.656250	-50.132137
5598.632812	-48.527512
5599.609375	-50.273563
5600.585938	-48.123871
5601.562500	-49.306469
5602.539062	-49.774208
5603.515625	-49.794613
5604.492188	-50.254196
5605.468750	-49.869816
5606.445312	-49.835690
5607.421875	-51.458714
5608.398438	-50.754662
5609.375000	-50.758144
5610.351562	-51.030117
5611.328125	-51.137169
5612.304688	-50.747089
5613.281250	-50.698708
5614.257812	-50.833862
5615.234375	-51.052868
5616.210938	-51.206490
5617.187500	-50.592823
5618.164062	-51.615444
5619.140625	-52.011791
5620.117188	-51.885078
5621.093750	-51.370636
5622.070312	-50.338314
5623.046875	-50.450905
5624.023438	-50.655926
5625.000000	-51.327484
5625.976562	-51.026569
5626.953125	-51.152901
5627.929688	-51.182755
5628.906250	-50.895294
5629.882812	-50.824581
5630.859375	-51.224964
5631.835938	-50.640915
5632.812500	-51.690144
5633.789062	-51.410767
5634.765625	-51.255962
5635.742188	-51.368092
5636.718750	-52.171246
5637.695312	-52.079472
5638.671875	-52.777893
5639.648438	-52.868420
5640.625000	-51.767269
5641.601562	-52.076965
5642.578125	-51.653568
5643.554688	-50.859936
5644.531250	-51.816521
5645.507812	-52.429344
5646.484375	-51.488750
5647.460938	-52.173985
5648.437500	-52.032761
5649.414062	-51.795479
5650.390625	-51.358715
5651.367188	-52.391323
5652.343750	-51.399284
5653.320312	-51.685024
5654.296875	-51.099670
5655.273438	-51.785114
5656.250000	-52.417793
5657.226562	-52.371536
5658.203125	-52.183372
5659.179688	-51.716091
5660.156250	-51.587479
5661.132812	-51.932400
5662.109375	-51.378132
5663.085938	-51.568470
5664.062500	-51.614536
5665.039062	-51.337242
5666.015625	-52.242401
5666.992188	-52.499317
5667.968750	-51.575119
5668.945312	-51.958115
5669.921875	-51.635754
5670.898438	-52.528206
5671.875000	-52.567085
5672.851562	-52.309650
5673.828125	-51.950752
5674.804688	-52.032539
5675.781250	-51.211113
5676.757812	-51.844719
5677.734375	-52.368065
5678.710938	-52.286095
5679.687500	-51.801235
5680.664062	-51.754719
5681.640625	-52.981983
5682.617188	-51.737537
5683.593750	-52.055443
5684.570312	-52.093166
5685.546875	-52.215103
5686.523438	-51.309551
5687.500000	-51.224022
5688.476562	-51.542854
5689.453125	-50.967705
5690.429688	-51.333004
5691.406250	-52.112919
5692.382812	-51.313843
5693.359375	-51.831326
5694.335938	-51.185215
5695.312500	-50.957401
5696.289062	-51.276531
5697.265625	-51.987556
5698.242188	-52.287529
5699.218750	-52.154266
5700.195312	-50.667229
5701.171875	-51.772526
5702.148438	-52.391895
5703.125000	-51.808491
5704.101562	-51.039127
5705.078125	-51.335739
5706.054688	-50.760460
5707.031250	-51.597725
5708.007812	-51.608215
5708.984375	-52.115681
5709.960938	-52.001434
5710.937500	-51.556618
5711.914062	-50.857948
5712.890625	-51.179539
5713.867188	-51.221703
5714.843750	-50.624702
5715.820312	-50.709572
5716.796875	-51.336536
5717.773438	-51.963837
5718.750000	-51.579662
5719.726562	-50.369442
5720.703125	-50.847507
5721.679688	-51.453438
5722.656250	-51.191154
5723.632812	-50.556915
5724.609375	-51.202168
5725.585938	-52.074200
5726.562500	-51.748062
5727.539062	-51.044514
5728.515625	-51.312286
5729.492188	-50.707386
5730.468750	-50.885651
5731.445312	-51.227619
5732.421875	-50.604027
5733.398438	-49.926678
5734.375000	-49.690380
5735.351562	-50.772915
5736.328125	-50.395252
5737.304688	-51.202732
5738.281250	-50.491833
5739.257812	-51.297062
5740.234375	-50.703243
5741.210938	-50.158184
5742.187500	-50.469467
5743.164062	-51.230331
5744.140625	-50.932682
5745.117188	-51.229946
5746.093750	-49.629246
5747.070312	-51.189178
5748.046875	-50.723614
5749.023438	-50.672188
5750.000000	-50.870113
5750.976562	-50.489708
5751.953125	-50.993671
5752.929688	-50.724716
5753.906250	-50.768726
5754.882812	-49.988503
5755.859375	-50.035099
5756.835938	-50.871029
5757.812500	-49.488007
5758.789062	-49.468052
5759.765625	-51.529015
5760.742188	-51.248051
5761.718750	-51.160526
5762.695312	-50.061783
5763.671875	-51.240566
5764.648438	-50.935310
5765.625000	-49.739025
5766.601562	-50.755497
5767.578125	-51.241360
5768.554688	-50.238697
5769.531250	-50.673450
5770.507812	-50.241329
5771.484375	-50.206821
5772.460938	-51.130642
5773.437500	-50.945683
5774.414062	-50.954468
5775.390625	-50.905090
5776.367188	-50.699413
5777.343750	-50.075054
5778.320312	-50.687683
5779.296875	-52.031109
5780.273438	-49.662159
5781.250000	-50.515354
5782.226562	-50.762634
5783.203125	-51.376587
5784.179688	-50.176846
5785.156250	-51.233238
5786.132812	-51.895298
5787.109375	-51.302986
5788.085938	-51.750008
5789.062500	-51.812431
5790.039062	-51.349953
5791.015625	-52.477051
5791.992188	-51.045815
5792.968750	-51.529560
5793.945312	-52.984867
5794.921875	-51.880604
5795.898438	-52.375721
5796.875000	-51.707058
5797.851562	-52.244873
5798.828125	-51.769913
5799.804688	-51.820747
5800.781250	-52.077290
5801.757812	-52.604309
5802.734375	-52.048649
5803.710938	-52.255520
5804.687500	-52.213329
5805.664062	-51.745453
5806.640625	-52.352505
5807.617188	-52.241024
5808.593750	-52.132362
5809.570312	-51.970272
5810.546875	-51.566113
5811.523438	-51.549461
5812.500000	-52.324753
5813.476562	-52.102612
5814.453125	-52.041084
5815.429688	-52.908264
5816.406250	-52.735210
5817.382812	-52.138435
5818.359375	-52.615345
5819.335938	-51.986702
5820.312500	-53.413239
5821.289062	-52.704815
5822.265625	-52.582031
5823.242188	-52.251701
5824.218750	-52.375072
5825.195312	-52.460613
5826.171875	-53.089714
5827.148438	-53.366615
5828.125000	-52.556973
5829.101562	-52.632492
5830.078125	-51.711956
5831.054688	-52.625343
5832.031250	-52.631020
5833.007812	-51.861496
5833.984375	-52.384747
5834.960938	-52.524509
5835.937500	-52.144733
5836.914062	-51.938244
5837.890625	-52.033989
5838.867188	-52.333210
5839.843750	-52.377476
5840.820312	-51.896755
5841.796875	-52.914127
5842.773438	-52.885639
5843.750000	-52.954395
5844.726562	-52.994106
5845.703125	-52.933811
5846.679688	-52.107388
5847.656250	-52.016773
5848.632812	-53.510998
5849.609375	-52.448975
5850.585938	-51.708797
5851.562500	-52.250378
5852.539062	-52.685532
5853.515625	-52.570488
5854.492188	-52.509575
5855.468750	-54.213795
5856.445312	-53.148060
5857.421875	-52.056202
5858.398438	-52.429527
5859.375000	-52.581352
5860.351562	-53.049404
5861.328125	-52.192333
5862.304688	-53.003700
5863.281250	-52.868889
5864.257812	-52.862118
5865.234375	-52.573708
5866.210938	-52.241631
5867.187500	-52.518463
5868.164062	-51.642269
5869.140625	-52.453880
5870.117188	-52.579830
5871.093750	-52.324310
5872.070312	-52.932377
5873.046875	-52.476292
5874.023438	-51.364117
5875.000000	-51.915154
5875.976562	-52.589722
5876.953125	-52.686115
5877.929688	-52.959030
5878.906250	-53.296402
5879.882812	-52.784210
5880.859375	-53.614159
5881.835938	-53.048214
5882.812500	-52.158424
5883.789062	-52.568867
5884.765625	-53.141727
5885.742188	-51.665371
5886.718750	-52.380791
5887.695312	-52.148033
5888.671875	-52.648659
5889.648438	-52.951103
5890.625000	-52.975677
5891.601562	-52.919815
5892.578125	-52.289642
5893.554688	-52.062294
5894.531250	-52.112274
5895.507812	-52.556969
5896.484375	-52.446480
5897.460938	-51.708450
5898.437500	-52.292339
5899.414062	-52.024460
5900.390625	-51.958946
5901.367188	-53.566578
5902.343750	-53.169308
5903.320312	-52.501633
5904.296875	-52.083462
5905.273438	-52.236721
5906.250000	-52.094212
5907.226562	-51.925930
5908.203125	-52.446186
5909.179688	-52.800323
5910.156250	-52.076405
5911.132812	-52.685490
5912.109375	-52.123085
5913.085938	-51.532448
5914.062500	-51.843567
5915.039062	-52.155006
5916.015625	-53.797897
5916.992188	-51.451286
5917.968750	-51.445713
5918.945312	-52.211990
5919.921875	-51.812286
5920.898438	-51.986778
5921.875000	-52.550156
5922.851562	-51.774399
5923.828125	-52.518196
5924.804688	-52.364655
5925.781250	-52.214954
5926.757812	-52.387508
5927.734375	-52.672192
5928.710938	-52.849297
5929.687500	-52.235836
5930.664062	-52.002632
5931.640625	-51.874969
5932.617188	-52.004101
5933.593750	-51.126530
5934.570312	-52.007984
5935.546875	-52.146400
5936.523438	-51.831219
5937.500000	-52.730675
5938.476562	-51.729568
5939.453125	-52.335236
5940.429688	-51.731277
5941.406250	-52.054573
5942.382812	-51.523678
5943.359375	-52.979305
5944.335938	-52.852810
5945.312500	-51.982075
5946.289062	-51.369965
5947.265625	-51.584435
5948.242188	-51.845394
5949.218750	-51.704575
5950.195312	-51.793793
5951.171875	-52.689503
5952.148438	-51.948208
5953.125000	-52.134151
5954.101562	-52.252579
5955.078125	-51.665600
5956.054688	-52.298241
5957.031250	-52.354279
5958.007812	-52.088039
5958.984375	-51.299412
5959.960938	-52.398411
5960.937500	-52.438141
5961.914062	-51.607155
5962.890625	-51.792942
5963.867188	-52.202263
5964.843750	-52.454605
5965.820312	-52.537338
5966.796875	-51.733765
5967.773438	-52.914494
5968.750000	-52.585175
5969.726562	-53.533329
5970.703125	-51.727905
5971.679688	-52.489414
5972.656250	-52.546482
5973.632812	-51.921612
5974.609375	-52.465397
5975.585938	-52.524300
5976.562500	-52.434479
5977.539062	-52.346535
5978.515625	-52.675640
5979.492188	-53.279064
5980.468750	-52.121552
5981.445312	-52.644260
5982.421875	-52.453987
5983.398438	-52.566105
5984.375000	-53.364185
5985.351562	-53.347828
5986.328125	-53.075649
5987.304688	-52.596313
5988.281250	-52.509342
5989.257812	-51.597675
5990.234375	-52.484905
5991.210938	-52.620678
5992.187500	-52.356136
5993.164062	-52.963493
5994.140625	-53.066429
5995.117188	-52.683270
5996.093750	-52.515480
5997.070312	-53.210255
5998.046875	-52.440941
5999.023438	-52.654510
6000.000000	-53.255341
6000.976562	-53.048969
6001.953125	-53.579590
6002.929688	-51.608765
6003.906250	-52.933350
6004.882812	-52.757107
6005.859375	-52.642925
6006.835938	-52.209332
6007.812500	-53.486683
6008.789062	-53.054863
6009.765625	-52.982433
6010.742188	-52.277359
6011.718750	-52.281956
6012.695312	-52.921249
6013.671875	-53.475307
6014.648438	-53.391815
6015.625000	-52.694538
6016.601562	-52.238857
6017.578125	-53.007862
6018.554688	-52.812408
6019.531250	-52.166164
6020.507812	-52.807335
6021.484375	-52.661655
6022.460938	-52.834412
6023.437500	-53.088825
6024.414062	-52.981186
6025.390625	-53.367901
6026.367188	-52.772480
6027.343750	-53.012779
6028.320312	-53.258820
6029.296875	-53.053032
6030.273438	-52.435116
6031.250000	-52.814194
6032.226562	-52.570515
6033.203125	-53.078930
6034.179688	-52.857349
6035.156250	-52.704826
6036.132812	-53.595020
6037.109375	-53.405521
6038.085938	-53.333366
6039.062500	-53.052589
6040.039062	-53.346310
6041.015625	-53.281475
6041.992188	-52.998425
6042.968750	-52.817173
6043.945312	-52.051376
6044.921875	-53.165577
6045.898438	-53.514427
6046.875000	-53.874149
6047.851562	-53.068455
6048.828125	-52.861671
6049.804688	-53.136860
6050.781250	-53.148697
6051.757812	-53.650818
6052.734375	-52.800762
6053.710938	-53.205112
6054.687500	-52.632481
6055.664062	-52.936707
6056.640625	-52.499012
6057.617188	-53.162785
6058.593750	-52.792038
6059.570312	-52.551765
6060.546875	-53.153828
6061.523438	-53.683517
6062.500000	-52.603065
6063.476562	-53.372314
6064.453125	-53.391727
6065.429688	-54.060192
6066.406250	-54.096634
6067.382812	-53.249229
6068.359375	-52.597736
6069.335938	-53.221016
6070.312500	-53.119022
6071.289062	-53.146641
6072.265625	-53.064186
6073.242188	-53.080582
6074.218750	-53.269089
6075.195312	-53.599113
6076.171875	-53.278332
6077.148438	-53.550117
6078.125000	-53.908169
6079.101562	-53.445393
6080.078125	-53.287983
6081.054688	-53.187519
6082.031250	-51.990826
6083.007812	-52.675423
6083.984375	-53.130611
6084.960938	-53.406673
6085.937500	-53.770630
6086.914062	-52.347630
6087.890625	-52.654667
6088.867188	-53.097294
6089.843750	-53.390839
6090.820312	-52.319561
6091.796875	-52.321461
6092.773438	-52.480412
6093.750000	-52.953560
6094.726562	-53.270527
6095.703125	-52.977600
6096.679688	-52.983891
6097.656250	-53.702316
6098.632812	-53.090279
6099.609375	-52.385345
6100.585938	-53.318336
6101.562500	-52.979542
6102.539062	-53.321976
6103.515625	-53.523659
6104.492188	-52.680653
6105.468750	-52.919411
6106.445312	-52.981655
6107.421875	-52.459496
6108.398438	-52.943645
6109.375000	-52.143097
6110.351562	-52.398895
6111.328125	-52.697342
6112.304688	-52.720943
6113.281250	-53.003021
6114.257812	-52.937145
6115.234375	-52.711216
6116.210938	-52.387882
6117.187500	-53.196060
6118.164062	-52.755016
6119.140625	-52.792648
6120.117188	-52.827240
6121.093750	-52.110416
6122.070312	-53.007729
6123.046875	-53.153908
6124.023438	-52.756630
6125.000000	-52.114841
6125.976562	-52.735027
6126.953125	-52.484596
6127.929688	-53.276863
6128.906250	-52.647655
6129.882812	-53.298771
6130.859375	-52.482349
6131.835938	-52.094582
6132.812500	-52.991798
6133.789062	-53.552860
6134.765625	-52.488712
6135.742188	-52.617321
6136.718750	-53.061977
6137.695312	-52.655022
6138.671875	-53.592506
6139.648438	-52.298534
6140.625000	-52.733315
6141.601562	-52.456680
6142.578125	-52.367344
6143.554688	-52.685043
6144.531250	-52.703823
6145.507812	-52.773827
6146.484375	-53.363842
6147.460938	-53.165916
6148.437500	-53.160465
6149.414062	-53.575001
6150.390625	-53.693092
6151.367188	-52.790676
6152.343750	-53.466179
6153.320312	-52.667751
6154.296875	-53.045391
6155.273438	-52.979675
6156.250000	-53.382465
6157.226562	-53.081013
6158.203125	-53.662655
6159.179688	-53.085045
6160.156250	-53.256969
6161.132812	-53.102722
6162.109375	-53.053284
6163.085938	-51.554405
6164.062500	-52.469723
6165.039062	-52.560860
6166.015625	-52.877491
6166.992188	-52.502510
6167.968750	-53.860764
6168.945312	-53.432373
6169.921875	-53.013203
6170.898438	-53.162724
6171.875000	-52.546776
6172.851562	-53.142139
6173.828125	-52.824146
6174.804688	-53.126389
6175.781250	-53.282902
6176.757812	-53.812794
6177.734375	-53.206215
6178.710938	-52.688042
6179.687500	-52.498627
6180.664062	-53.193806
6181.640625	-53.087494
6182.617188	-53.074364
6183.593750	-52.771904
6184.570312	-53.343544
6185.546875	-53.070351
6186.523438	-53.415611
6187.500000	-52.703693
6188.476562	-52.903008
6189.453125	-54.007923
6190.429688	-53.389088
6191.406250	-53.664284
6192.382812	-53.904552
6193.359375	-53.416199
6194.335938	-53.009460
6195.312500	-53.380306
6196.289062	-53.426155
6197.265625	-52.969761
6198.242188	-53.257988
6199.218750	-53.599194
6200.195312	-53.224770
6201.171875	-52.955906
6202.148438	-52.729038
6203.125000	-53.588722
6204.101562	-53.429680
6205.078125	-53.050854
6206.054688	-53.319992
6207.031250	-53.749012
6208.007812	-53.696537
6208.984375	-53.115810
6209.960938	-53.801670
6210.937500	-53.511665
6211.914062	-53.158566
6212.890625	-52.831940
6213.867188	-53.332260
6214.843750	-53.741974
6215.820312	-53.305069
6216.796875	-53.397606
6217.773438	-53.529697
6218.750000	-54.181770
6219.726562	-53.791748
6220.703125	-53.513958
6221.679688	-53.657738
6222.656250	-53.784000
6223.632812	-53.710335
6224.609375	-52.339569
6225.585938	-53.266060
6226.562500	-53.734566
6227.539062	-53.122662
6228.515625	-53.075573
6229.492188	-52.939251
6230.468750	-53.841934
6231.445312	-53.055382
6232.421875	-54.441570
6233.398438	-53.550816
6234.375000	-53.046608
6235.351562	-52.793568
6236.328125	-53.613682
6237.304688	-53.258202
6238.281250	-52.990753
6239.257812	-53.621559
6240.234375	-53.105732
6241.210938	-53.201641
6242.187500	-53.995304
6243.164062	-53.824989
6244.140625	-53.472641
6245.117188	-53.290627
6246.093750	-52.748554
6247.070312	-52.539707
6248.046875	-53.083408
6249.023438	-53.084862
6250.000000	-53.122406
6250.976562	-53.582649
6251.953125	-53.301121
6252.929688	-53.303131
6253.906250	-52.764370
6254.882812	-53.245968
6255.859375	-52.135773
6256.835938	-52.984379
6257.812500	-53.036949
6258.789062	-53.854183
6259.765625	-52.883602
6260.742188	-53.743683
6261.718750	-53.382339
6262.695312	-52.893391
6263.671875	-53.149372
6264.648438	-53.889961
6265.625000	-53.144257
6266.601562	-53.192368
6267.578125	-52.852753
6268.554688	-53.187050
6269.531250	-54.148895
6270.507812	-53.985767
6271.484375	-53.711819
6272.460938	-53.513340
6273.437500	-52.997715
6274.414062	-53.269394
6275.390625	-52.925201
6276.367188	-52.455120
6277.343750	-52.413193
6278.320312	-53.394634
6279.296875	-52.659241
6280.273438	-52.615421
6281.250000	-52.870613
6282.226562	-52.888161
6283.203125	-53.549530
6284.179688	-53.434589
6285.156250	-53.145138
6286.132812	-53.586777
6287.109375	-53.226719
6288.085938	-53.724686
6289.062500	-53.932419
6290.039062	-53.153671
6291.015625	-52.767635
6291.992188	-54.550526
6292.968750	-53.221859
6293.945312	-53.166718
6294.921875	-53.397789
6295.898438	-52.921062
6296.875000	-53.581264
6297.851562	-53.371498
6298.828125	-53.549370
6299.804688	-53.241146
6300.781250	-53.218758
6301.757812	-53.164852
6302.734375	-53.884506
6303.710938	-52.319046
6304.687500	-53.237000
6305.664062	-53.855518
6306.640625	-53.258667
6307.617188	-53.793320
6308.593750	-52.972973
6309.570312	-52.662338
6310.546875	-53.396225
6311.523438	-53.525478
6312.500000	-53.567238
6313.476562	-53.184269
6314.453125	-52.915455
6315.429688	-53.196457
6316.406250	-53.660530
6317.382812	-53.620972
6318.359375	-53.070351
6319.335938	-53.831844
6320.312500	-53.265259
6321.289062	-53.058449
6322.265625	-53.047409
6323.242188	-52.803619
6324.218750	-53.289371
6325.195312	-52.822803
6326.171875	-53.131954
6327.148438	-53.612709
6328.125000	-53.018768
6329.101562	-52.569546
6330.078125	-52.405262
6331.054688	-53.014835
6332.031250	-53.561611
6333.007812	-53.257713
6333.984375	-52.802269
6334.960938	-53.507782
6335.937500	-54.275139
6336.914062	-53.202663
6337.890625	-52.863106
6338.867188	-53.121693
6339.843750	-53.827141
6340.820312	-53.251343
6341.796875	-52.584335
6342.773438	-52.592163
6343.750000	-52.983868
6344.726562	-53.155861
6345.703125	-52.845654
6346.679688	-53.694107
6347.656250	-53.207592
6348.632812	-53.625237
6349.609375	-52.763630
6350.585938	-53.118233
6351.562500	-52.613728
6352.539062	-53.534199
6353.515625	-53.391331
6354.492188	-53.524353
6355.468750	-53.423557
6356.445312	-53.216995
6357.421875	-52.945465
6358.398438	-52.813980
6359.375000	-53.148071
6360.351562	-52.753670
6361.328125	-53.567898
6362.304688	-53.270973
6363.281250	-53.168018
6364.257812	-52.708344
6365.234375	-53.401329
6366.210938	-53.577606
6367.187500	-53.506161
6368.164062	-53.010078
6369.140625	-52.765427
6370.117188	-52.749931
6371.093750	-53.361458
6372.070312	-52.569088
6373.046875	-53.826046
6374.023438	-53.672626
6375.000000	-53.826927
6375.976562	-53.628571
6376.953125	-53.664631
6377.929688	-53.474037
6378.906250	-53.113487
6379.882812	-54.214848
6380.859375	-52.742504
6381.835938	-53.684624
6382.812500	-53.034164
6383.789062	-54.493233
6384.765625	-53.664948
6385.742188	-53.231533
6386.718750	-53.119976
6387.695312	-53.900627
6388.671875	-53.831009
6389.648438	-53.359795
6390.625000	-53.043903
6391.601562	-53.535374
6392.578125	-53.853771
6393.554688	-53.611946
6394.531250	-54.196823
6395.507812	-53.427803
6396.484375	-53.383102
6397.460938	-53.500763
6398.437500	-53.048645
6399.414062	-53.632942
6400.390625	-53.334702
6401.367188	-53.541809
6402.343750	-53.265778
6403.320312	-53.671871
6404.296875	-53.220798
6405.273438	-53.433346
6406.250000	-53.918644
6407.226562	-54.241211
6408.203125	-53.247272
6409.179688	-53.099281
6410.156250	-53.161026
6411.132812	-53.116810
6412.109375	-53.185375
6413.085938	-53.020596
6414.062500	-53.339638
6415.039062	-52.954990
6416.015625	-52.927891
6416.992188	-53.037468
6417.968750	-53.099144
6418.945312	-53.378544
6419.921875	-53.964172
6420.898438	-54.161465
6421.875000	-53.567688
6422.851562	-53.694683
6423.828125	-53.442413
6424.804688	-54.771519
6425.781250	-53.668945
6426.757812	-53.129696
6427.734375	-53.360195
6428.710938	-53.859146
6429.687500	-53.524811
6430.664062	-53.520061
6431.640625	-54.194260
6432.617188	-54.323502
6433.593750	-53.445435
6434.570312	-53.190010
6435.546875	-53.066216
6436.523438	-53.708248
6437.500000	-53.744625
6438.476562	-53.152687
6439.453125	-53.181679
6440.429688	-53.152355
6441.406250	-53.515076
6442.382812	-53.523010
6443.359375	-52.450020
6444.335938	-52.599255
6445.312500	-53.202133
6446.289062	-52.890167
6447.265625	-52.977825
6448.242188	-53.259567
6449.218750	-53.882374
6450.195312	-52.939072
6451.171875	-53.020279
6452.148438	-53.213760
6453.125000	-53.807396
6454.101562	-53.085537
6455.078125	-53.280048
6456.054688	-53.071228
6457.031250	-52.724262
6458.007812	-53.399475
6458.984375	-53.287693
6459.960938	-53.472191
6460.937500	-53.517616
6461.914062	-53.417931
6462.890625	-53.645531
6463.867188	-53.228493
6464.843750	-53.739059
6465.820312	-53.607063
6466.796875	-52.921379
6467.773438	-52.737514
6468.750000	-53.780785
6469.726562	-53.283432
6470.703125	-53.958019
6471.679688	-53.291386
6472.656250	-53.320114
6473.632812	-53.011158
6474.609375	-52.460270
6475.585938	-53.145939
6476.562500	-53.676895
6477.539062	-53.645084
6478.515625	-53.210438
6479.492188	-53.194324
6480.468750	-53.583607
6481.445312	-53.816479
6482.421875	-53.925133
6483.398438	-53.623516
6484.375000	-53.836880
6485.351562	-53.551689
6486.328125	-53.147667
6487.304688	-52.913372
6488.281250	-53.590286
6489.257812	-52.781586
6490.234375	-53.264938
6491.210938	-52.714058
6492.187500	-52.847149
6493.164062	-52.912609
6494.140625	-53.509808
6495.117188	-53.804218
6496.093750	-52.690041
6497.070312	-53.166298
6498.046875	-52.306011
6499.023438	-52.852142
6500.000000	-52.927696
6500.976562	-52.920395
6501.953125	-53.577530
6502.929688	-52.860916
6503.906250	-53.083904
6504.882812	-53.616272
6505.859375	-52.740055
6506.835938	-53.604336
6507.812500	-52.793686
6508.789062	-53.150303
6509.765625	-53.215866
6510.742188	-52.839695
6511.718750	-53.260170
6512.695312	-53.041801
6513.671875	-53.083023
6514.648438	-53.631077
6515.625000	-53.105961
6516.601562	-53.200420
6517.578125	-53.336800
6518.554688	-53.269707
6519.531250	-52.565456
6520.507812	-52.779869
6521.484375	-52.978611
6522.460938	-52.774685
6523.437500	-52.941185
6524.414062	-53.344215
6525.390625	-53.259743
6526.367188	-52.241135
6527.343750	-53.298103
6528.320312	-53.380833
6529.296875	-53.051216
6530.273438	-53.896397
6531.250000	-53.903843
6532.226562	-53.408382
6533.203125	-52.779518
6534.179688	-52.921993
6535.156250	-53.657352
6536.132812	-53.460953
6537.109375	-53.187065
6538.085938	-53.874184
6539.062500	-54.132710
6540.039062	-53.260094
6541.015625	-52.801075
6541.992188	-53.024700
6542.968750	-53.089298
6543.945312	-53.520664
6544.921875	-53.442574
6545.898438	-52.623257
6546.875000	-52.439026
6547.851562	-52.799053
6548.828125	-53.673302
6549.804688	-53.901310
6550.781250	-53.244827
6551.757812	-53.424168
6552.734375	-53.683212
6553.710938	-53.723106
6554.687500	-53.106239
6555.664062	-53.566929
6556.640625	-53.653740
6557.617188	-53.493256
6558.593750	-54.015911
6559.570312	-53.458885
6560.546875	-54.572666
6561.523438	-54.343494
6562.500000	-52.660183
6563.476562	-52.532993
6564.453125	-52.489643
6565.429688	-52.723377
6566.406250	-53.333775
6567.382812	-54.230877
6568.359375	-52.946407
6569.335938	-52.786629
6570.312500	-53.405998
6571.289062	-52.570930
6572.265625	-53.237442
6573.242188	-53.589413
6574.218750	-53.517948
6575.195312	-53.953716
6576.171875	-53.822063
6577.148438	-53.457203
6578.125000	-53.173660
6579.101562	-54.017078
6580.078125	-53.228371
6581.054688	-53.435478
6582.031250	-54.184982
6583.007812	-53.240524
6583.984375	-54.187706
6584.960938	-53.361301
6585.937500	-52.640163
6586.914062	-52.420307
6587.890625	-53.178864
6588.867188	-53.158989
6589.843750	-53.547165
6590.820312	-53.833878
6591.796875	-53.257454
6592.773438	-53.731400
6593.750000	-53.019947
6594.726562	-52.995228
6595.703125	-53.128143
6596.679688	-53.697220
6597.656250	-53.863461
6598.632812	-53.819736
6599.609375	-54.112087
6600.585938	-53.404884
6601.562500	-52.870583
6602.539062	-53.050159
6603.515625	-53.018776
6604.492188	-52.096493
6605.468750	-53.588200
6606.445312	-53.421257
6607.421875	-53.921261
6608.398438	-53.804596
6609.375000	-53.491909
6610.351562	-53.511669
6611.328125	-52.679604
6612.304688	-53.451447
6613.281250	-53.175323
6614.257812	-53.755344
6615.234375	-54.435162
6616.210938	-54.273170
6617.187500	-52.985573
6618.164062	-53.549610
6619.140625	-53.599514
6620.117188	-54.115253
6621.093750	-53.203392
6622.070312	-52.826199
6623.046875	-53.220528
6624.023438	-53.133244
6625.000000	-53.019947
6625.976562	-52.799675
6626.953125	-53.178612
6627.929688	-53.115623
6628.906250	-53.094616
6629.882812	-53.338852
6630.859375	-53.232346
6631.835938	-53.709908
6632.812500	-53.779938
6633.789062	-53.605110
6634.765625	-53.071213
6635.742188	-52.626366
6636.718750	-53.165108
6637.695312	-53.017635
6638.671875	-53.081764
6639.648438	-52.772324
6640.625000	-52.815842
6641.601562	-53.366081
6642.578125	-53.593239
6643.554688	-53.098354
6644.531250	-53.156750
6645.507812	-53.531719
6646.484375	-52.544559
6647.460938	-53.529034
6648.437500	-52.968983
6649.414062	-53.182220
6650.390625	-53.296921
6651.367188	-52.830311
6652.343750	-53.952106
6653.320312	-54.442429
6654.296875	-53.591766
6655.273438	-53.679245
6656.250000	-53.035179
6657.226562	-52.816200
6658.203125	-53.323536
6659.179688	-53.735069
6660.156250	-53.343403
6661.132812	-53.268646
6662.109375	-53.289581
6663.085938	-53.318420
6664.062500	-52.657104
6665.039062	-52.722839
6666.015625	-53.931469
6666.992188	-53.222790
6667.968750	-53.603451
6668.945312	-53.092533
6669.921875	-53.425701
6670.898438	-52.943768
6671.875000	-53.452091
6672.851562	-53.999790
6673.828125	-53.904446
6674.804688	-52.958229
6675.781250	-53.136860
6676.757812	-53.125435
6677.734375	-54.485493
6678.710938	-53.406490
6679.687500	-52.970837
6680.664062	-53.677376
6681.640625	-53.898891
6682.617188	-53.600327
6683.593750	-53.026752
6684.570312	-53.704071
6685.546875	-53.588757
6686.523438	-53.852837
6687.500000	-53.701515
6688.476562	-53.726002
6689.453125	-53.306808
6690.429688	-53.377560
6691.406250	-52.978592
6692.382812	-53.531055
6693.359375	-53.288654
6694.335938	-53.621536
6695.312500	-53.079803
6696.289062	-53.678665
6697.265625	-53.953003
6698.242188	-53.525269
6699.218750	-53.268967
6700.195312	-53.247684
6701.171875	-54.056171
6702.148438	-53.214779
6703.125000	-53.431778
6704.101562	-53.570656
6705.078125	-53.432381
6706.054688	-53.417610
6707.031250	-54.643429
6708.007812	-53.786415
6708.984375	-53.481289
6709.960938	-53.266644
6710.937500	-53.347900
6711.914062	-53.885597
6712.890625	-53.931282
6713.867188	-53.588028
6714.843750	-53.550957
6715.820312	-53.967304
6716.796875	-54.082607
6717.773438	-53.425518
6718.750000	-53.009903
6719.726562	-53.601860
6720.703125	-53.361870
6721.679688	-53.542946
6722.656250	-53.755806
6723.632812	-53.900208
6724.609375	-53.775581
6725.585938	-54.087261
6726.562500	-53.618057
6727.539062	-53.751953
6728.515625	-53.989758
6729.492188	-53.510342
6730.468750	-54.114250
6731.445312	-53.590935
6732.421875	-53.120750
6733.398438	-54.007404
6734.375000	-54.283024
6735.351562	-53.902420
6736.328125	-53.586967
6737.304688	-53.623596
6738.281250	-53.564831
6739.257812	-53.893326
6740.234375	-53.539536
6741.210938	-53.585567
6742.187500	-53.589943
6743.164062	-53.692181
6744.140625	-53.074848
6745.117188	-53.626514
6746.093750	-54.482471
6747.070312	-53.357090
6748.046875	-53.552902
6749.023438	-53.569275
6750.000000	-54.148369
6750.976562	-54.064724
6751.953125	-53.462791
6752.929688	-54.512077
6753.906250	-54.233608
6754.882812	-53.615402
6755.859375	-54.246025
6756.835938	-53.974060
6757.812500	-53.847458
6758.789062	-54.069504
6759.765625	-53.774151
6760.742188	-53.772945
6761.718750	-53.718792
6762.695312	-54.501392
6763.671875	-54.132500
6764.648438	-53.987602
6765.625000	-54.182865
6766.601562	-53.606304
6767.578125	-53.784454
6768.554688	-53.692528
6769.531250	-53.635571
6770.507812	-54.450024
6771.484375	-54.079762
6772.460938	-53.278210
6773.437500	-54.294636
6774.414062	-54.330395
6775.390625	-54.360470
6776.367188	-54.035732
6777.343750	-53.199673
6778.320312	-54.773029
6779.296875	-54.419498
6780.273438	-53.363495
6781.250000	-54.233418
6782.226562	-53.656403
6783.203125	-54.732487
6784.179688	-53.933094
6785.156250	-54.605141
6786.132812	-53.479198
6787.109375	-53.382870
6788.085938	-54.544479
6789.062500	-53.962173
6790.039062	-54.106544
6791.015625	-53.588921
6791.992188	-53.742977
6792.968750	-54.182911
6793.945312	-54.219124
6794.921875	-53.519779
6795.898438	-54.065819
6796.875000	-53.849663
6797.851562	-53.853352
6798.828125	-54.146099
6799.804688	-54.316093
6800.781250	-53.823975
6801.757812	-54.110214
6802.734375	-53.700722
6803.710938	-53.955574
6804.687500	-53.521523
6805.664062	-53.714764
6806.640625	-54.039772
6807.617188	-53.977993
6808.593750	-53.870697
6809.570312	-53.756760
6810.546875	-54.221134
6811.523438	-54.719349
6812.500000	-53.451408
6813.476562	-54.036007
6814.453125	-54.277122
6815.429688	-53.937534
6816.406250	-53.341503
6817.382812	-53.445950
6818.359375	-54.237343
6819.335938	-54.358452
6820.312500	-54.363625
6821.289062	-53.835381
6822.265625	-53.569984
6823.242188	-54.271580
6824.218750	-53.051601
6825.195312	-54.215580
6826.171875	-53.910934
6827.148438	-54.441681
6828.125000	-53.576263
6829.101562	-53.801666
6830.078125	-53.024025
6831.054688	-54.704094
6832.031250	-54.646660
6833.007812	-54.114559
6833.984375	-54.640812
6834.960938	-54.873322
6835.937500	-54.154140
6836.914062	-54.360420
6837.890625	-54.364098
6838.867188	-53.571922
6839.843750	-54.092262
6840.820312	-54.694576
6841.796875	-54.495575
6842.773438	-54.344341
6843.750000	-54.780346
6844.726562	-54.041317
6845.703125	-54.698513
6846.679688	-53.949158
6847.656250	-54.079838
6848.632812	-54.343811
6849.609375	-54.865524
6850.585938	-54.259418
6851.562500	-54.731789
6852.539062	-54.742855
6853.515625	-54.571423
6854.492188	-54.141315
6855.468750	-54.377575
6856.445312	-54.192856
6857.421875	-55.787621
6858.398438	-54.628998
6859.375000	-54.421978
6860.351562	-54.582829
6861.328125	-53.697872
6862.304688	-54.401787
6863.281250	-54.788376
6864.257812	-53.943558
6865.234375	-54.275024
6866.210938	-54.084995
6867.187500	-54.433784
6868.164062	-54.304420
6869.140625	-53.506023
6870.117188	-53.628071
6871.093750	-54.175777
6872.070312	-53.678814
6873.046875	-54.708858
6874.023438	-54.117569
6875.000000	-54.736797
6875.976562	-55.728928
6876.953125	-55.317024
6877.929688	-54.336468
6878.906250	-54.681252
6879.882812	-55.000622
6880.859375	-54.108013
6881.835938	-54.623436
6882.812500	-55.083912
6883.789062	-54.584522
6884.765625	-54.617409
6885.742188	-54.631729
6886.718750	-54.700954
6887.695312	-55.042915
6888.671875	-54.812599
6889.648438	-55.014297
6890.625000	-54.114166
6891.601562	-55.057846
6892.578125	-54.498840
6893.554688	-53.870152
6894.531250	-54.468967
6895.507812	-54.477112
6896.484375	-55.447639
6897.460938	-55.256954
6898.437500	-54.711834
6899.414062	-55.115749
6900.390625	-54.915146
6901.367188	-54.802265
6902.343750	-54.287125
6903.320312	-54.244339
6904.296875	-54.482227
6905.273438	-54.478874
6906.250000	-54.338932
6907.226562	-54.999519
6908.203125	-55.126781
6909.179688	-54.297890
6910.156250	-53.988674
6911.132812	-54.447453
6912.109375	-54.272129
6913.085938	-55.319340
6914.062500	-54.697460
6915.039062	-55.170650
6916.015625	-54.445675
6916.992188	-54.360695
6917.968750	-54.143425
6918.945312	-54.324600
6919.921875	-54.964916
6920.898438	-55.035149
6921.875000	-54.874664
6922.851562	-54.138855
6923.828125	-54.758465
6924.804688	-54.747341
6925.781250	-54.728191
6926.757812	-55.106102
6927.734375	-55.176434
6928.710938	-55.295822
6929.687500	-55.013962
6930.664062	-54.810074
6931.640625	-55.101562
6932.617188	-54.799786
6933.593750	-54.600914
6934.570312	-55.031101
6935.546875	-54.723312
6936.523438	-55.088013
6937.500000	-55.139877
6938.476562	-54.724724
6939.453125	-54.970085
6940.429688	-54.596233
6941.406250	-54.220398
6942.382812	-55.067348
6943.359375	-55.030437
6944.335938	-54.894367
6945.312500	-54.823013
6946.289062	-54.969090
6947.265625	-55.034382
6948.242188	-54.531921
6949.218750	-54.608677
6950.195312	-54.640717
6951.171875	-55.423702
6952.148438	-54.467480
6953.125000	-55.890171
6954.101562	-55.657646
6955.078125	-55.269814
6956.054688	-55.046444
6957.031250	-55.638687
6958.007812	-54.940701
6958.984375	-54.861927
6959.960938	-55.069778
6960.937500	-54.805908
6961.914062	-55.905800
6962.890625	-55.884010
6963.867188	-54.381863
6964.843750	-54.957291
6965.820312	-54.951611
6966.796875	-55.439163
6967.773438	-55.342979
6968.750000	-55.177116
6969.726562	-55.776718
6970.703125	-55.027679
6971.679688	-55.073544
6972.656250	-55.771553
6973.632812	-55.351948
6974.609375	-55.585617
6975.585938	-55.447121
6976.562500	-55.339859
6977.539062	-54.719036
6978.515625	-55.169270
6979.492188	-55.612564
6980.468750	-55.045547
6981.445312	-55.440117
6982.421875	-55.070278
6983.398438	-54.823902
6984.375000	-55.977612
6985.351562	-55.698654
6986.328125	-55.649254
6987.304688	-54.947571
6988.281250	-54.378735
6989.257812	-55.670822
6990.234375	-54.582916
6991.210938	-55.160290
6992.187500	-55.849640
6993.164062	-55.522568
6994.140625	-56.704971
6995.117188	-54.967999
6996.093750	-55.269108
6997.070312	-55.698292
6998.046875	-55.703506
6999.023438	-54.652626
7000.000000	-55.161358
7000.976562	-55.724819
7001.953125	-55.258492
7002.929688	-56.194160
7003.906250	-55.514565
7004.882812	-56.315372
7005.859375	-55.813087
7006.835938	-55.238838
7007.812500	-55.603096
7008.789062	-55.609306
7009.765625	-56.076591
7010.742188	-56.545326
7011.718750	-55.855423
7012.695312	-54.876175
7013.671875	-55.669750
7014.648438	-55.436306
7015.625000	-55.616234
7016.601562	-56.137798
7017.578125	-55.391197
7018.554688	-55.266911
7019.531250	-55.461853
7020.507812	-55.992592
7021.484375	-55.556408
7022.460938	-55.925114
7023.437500	-56.747868
7024.414062	-55.555260
7025.390625	-56.316853
7026.367188	-56.123222
7027.343750	-56.078758
7028.320312	-55.738564
7029.296875	-55.393520
7030.273438	-55.251110
7031.250000	-55.478531
7032.226562	-56.147915
7033.203125	-56.145336
7034.179688	-56.259815
7035.156250	-55.970024
7036.132812	-55.950066
7037.109375	-55.980629
7038.085938	-55.810719
7039.062500	-55.969238
7040.039062	-56.006989
7041.015625	-56.522446
7041.992188	-56.030563
7042.968750	-55.741177
7043.945312	-56.134819
7044.921875	-56.448120
7045.898438	-56.460136
7046.875000	-56.664577
7047.851562	-56.385777
7048.828125	-55.475697
7049.804688	-55.869938
7050.781250	-55.561588
7051.757812	-56.186115
7052.734375	-55.921177
7053.710938	-56.085819
7054.687500	-56.406769
7055.664062	-55.691086
7056.640625	-56.428532
7057.617188	-56.826633
7058.593750	-56.237976
7059.570312	-56.070461
7060.546875	-56.574905
7061.523438	-56.486279
7062.500000	-56.482624
7063.476562	-56.384647
7064.453125	-56.456905
7065.429688	-56.452309
7066.406250	-57.061829
7067.382812	-56.182148
7068.359375	-56.444424
7069.335938	-56.567348
7070.312500	-56.908844
7071.289062	-56.743809
7072.265625	-56.184345
7073.242188	-57.044323
7074.218750	-56.158745
7075.195312	-56.432690
7076.171875	-56.269348
7077.148438	-56.217976
7078.125000	-56.106941
7079.101562	-56.761204
7080.078125	-56.222759
7081.054688	-56.498589
7082.031250	-57.025608
7083.007812	-57.300652
7083.984375	-56.752609
7084.960938	-56.413994
7085.937500	-56.975143
7086.914062	-56.626720
7087.890625	-57.145287
7088.867188	-57.767414
7089.843750	-57.586033
7090.820312	-57.185654
7091.796875	-57.345112
7092.773438	-56.920067
7093.750000	-56.860935
7094.726562	-57.572102
7095.703125	-57.272305
7096.679688	-58.050350
7097.656250	-57.292233
7098.632812	-56.606007
7099.609375	-57.212505
7100.585938	-57.570847
7101.562500	-57.596203
7102.539062	-57.148613
7103.515625	-56.284180
7104.492188	-57.123238
7105.468750	-56.900105
7106.445312	-57.558170
7107.421875	-56.632027
7108.398438	-57.061371
7109.375000	-57.110767
7110.351562	-56.740932
7111.328125	-57.181572
7112.304688	-57.380840
7113.281250	-57.632126
7114.257812	-57.610470
7115.234375	-58.100952
7116.210938	-58.529606
7117.187500	-58.058392
7118.164062	-58.968266
7119.140625	-58.153603
7120.117188	-57.165207
7121.093750	-57.949047
7122.070312	-57.328403
7123.046875	-58.020676
7124.023438	-58.023884
7125.000000	-58.534973
7125.976562	-58.195068
7126.953125	-58.391624
7127.929688	-58.392365
7128.906250	-58.874302
7129.882812	-57.953133
7130.859375	-58.507542
7131.835938	-57.873383
7132.812500	-58.007442
7133.789062	-58.187534
7134.765625	-58.607300
7135.742188	-58.554630
7136.718750	-58.237118
7137.695312	-58.679092
7138.671875	-58.901436
7139.648438	-58.957184
7140.625000	-58.935040
7141.601562	-58.476608
7142.578125	-58.432594
7143.554688	-59.153091
7144.531250	-58.623405
7145.507812	-58.315151
7146.484375	-58.311123
7147.460938	-59.338779
7148.437500	-58.173458
7149.414062	-58.999760
7150.390625	-58.600365
7151.367188	-58.674381
7152.343750	-58.549419
7153.320312	-58.969372
7154.296875	-59.204693
7155.273438	-58.834038
7156.250000	-58.669868
7157.226562	-59.356174
7158.203125	-58.821579
7159.179688	-58.883785
7160.156250	-59.040825
7161.132812	-58.610397
7162.109375	-58.739376
7163.085938	-58.388588
7164.062500	-58.928814
7165.039062	-59.211262
7166.015625	-59.304577
7166.992188	-59.401905
7167.968750	-59.441757
7168.945312	-59.162434
7169.921875	-58.920944
7170.898438	-58.507435
7171.875000	-58.913055
7172.851562	-59.089005
7173.828125	-59.263359
7174.804688	-58.093185
7175.781250	-59.052593
7176.757812	-59.221077
7177.734375	-59.331024
7178.710938	-60.682556
7179.687500	-60.387367
7180.664062	-58.829319
7181.640625	-58.518425
7182.617188	-59.635731
7183.593750	-58.527309
7184.570312	-59.288406
7185.546875	-59.288273
7186.523438	-59.584110
7187.500000	-59.598869
7188.476562	-59.837132
7189.453125	-59.615551
7190.429688	-59.358097
7191.406250	-59.098984
7192.382812	-58.407219
7193.359375	-59.831982
7194.335938	-59.972866
7195.312500	-59.619350
7196.289062	-58.988045
7197.265625	-60.037361
7198.242188	-60.266262
7199.218750	-59.815193
7200.195312	-59.175526
7201.171875	-59.261921
7202.148438	-60.135784
7203.125000	-59.782051
7204.101562	-60.061115
7205.078125	-59.901806
7206.054688	-59.920403
7207.031250	-60.254929
7208.007812	-60.264782
7208.984375	-59.767750
7209.960938	-59.890087
7210.937500	-60.786446
7211.914062	-60.767906
7212.890625	-59.898560
7213.867188	-59.483723
7214.843750	-60.137585
7215.820312	-60.004040
7216.796875	-60.170818
7217.773438	-59.765495
7218.750000	-60.520157
7219.726562	-59.952168
7220.703125	-60.932743
7221.679688	-60.214245
7222.656250	-59.911800
7223.632812	-60.851357
7224.609375	-59.985050
7225.585938	-60.727898
7226.562500	-61.065243
7227.539062	-60.258804
7228.515625	-60.497616
7229.492188	-60.327187
7230.468750	-60.523277
7231.445312	-60.888416
7232.421875	-60.958965
7233.398438	-60.331886
7234.375000	-60.686249
7235.351562	-60.753826
7236.328125	-60.060295
7237.304688	-60.870567
7238.281250	-59.943142
7239.257812	-60.072083
7240.234375	-60.941124
7241.210938	-60.787197
7242.187500	-61.277046
7243.164062	-61.244171
7244.140625	-60.661259
7245.117188	-60.561428
7246.093750	-61.007401
7247.070312	-61.490772
7248.046875	-61.532169
7249.023438	-61.646164
7250.000000	-61.621262
7250.976562	-60.790081
7251.953125	-61.615200
7252.929688	-61.442684
7253.906250	-61.699001
7254.882812	-62.176273
7255.859375	-62.060619
7256.835938	-61.555599
7257.812500	-61.013233
7258.789062	-61.505577
7259.765625	-61.216686
7260.742188	-62.292404
7261.718750	-61.832359
7262.695312	-62.046719
7263.671875	-62.125031
7264.648438	-62.671394
7265.625000	-62.913887
7266.601562	-61.919033
7267.578125	-61.091125
7268.554688	-62.488377
7269.531250	-62.293152
7270.507812	-61.777515
7271.484375	-62.236721
7272.460938	-61.656498
7273.437500	-62.916729
7274.414062	-62.557293
7275.390625	-62.807716
7276.367188	-62.988689
7277.343750	-62.955784
7278.320312	-63.295555
7279.296875	-62.135719
7280.273438	-63.893826
7281.250000	-62.749508
7282.226562	-62.797947
7283.203125	-62.213650
7284.179688	-63.485188
7285.156250	-63.075138
7286.132812	-63.724487
7287.109375	-63.994724
7288.085938	-62.982132
7289.062500	-62.407600
7290.039062	-63.232357
7291.015625	-63.820934
7291.992188	-63.445656
7292.968750	-63.516087
7293.945312	-63.045906
7294.921875	-63.706272
7295.898438	-63.604542
7296.875000	-63.434639
7297.851562	-63.660679
7298.828125	-63.547565
7299.804688	-63.733109
7300.781250	-63.698391
7301.757812	-64.589523
7302.734375	-63.502502
7303.710938	-63.860504
7304.687500	-64.582405
7305.664062	-64.285469
7306.640625	-63.495682
7307.617188	-64.188232
7308.593750	-65.488777
7309.570312	-64.877930
7310.546875	-64.210136
7311.523438	-64.740013
7312.500000	-64.667435
7313.476562	-65.043869
7314.453125	-65.024757
7315.429688	-65.048111
7316.406250	-64.990311
7317.382812	-65.207146
7318.359375	-64.244911
7319.335938	-64.529289
7320.312500	-64.872414
7321.289062	-65.009735
7322.265625	-65.393028
7323.242188	-65.574371
7324.218750	-65.709999
7325.195312	-65.889481
7326.171875	-65.366432
7327.148438	-66.145737
7328.125000	-65.768173
7329.101562	-66.031143
7330.078125	-64.730614
7331.054688	-65.127419
7332.031250	-65.903152
7333.007812	-65.364021
7333.984375	-66.553589
7334.960938	-65.800392
7335.937500	-65.857391
7336.914062	-66.100044
7337.890625	-66.410286
7338.867188	-65.879517
7339.843750	-65.854515
7340.820312	-66.027534
7341.796875	-65.692505
7342.773438	-65.559235
7343.750000	-66.543373
7344.726562	-66.583023
7345.703125	-65.745308
7346.679688	-66.619972
7347.656250	-67.160690
7348.632812	-66.296066
7349.609375	-66.577324
7350.585938	-66.752243
7351.562500	-66.901764
7352.539062	-66.229210
7353.515625	-67.170738
7354.492188	-66.931816
7355.468750	-66.126434
7356.445312	-66.735504
7357.421875	-66.349892
7358.398438	-66.606155
7359.375000	-67.077835
7360.351562	-67.459892
7361.328125	-66.629341
7362.304688	-66.786331
7363.281250	-67.859947
7364.257812	-67.444878
7365.234375	-67.637161
7366.210938	-67.141266
7367.187500	-67.526154
7368.164062	-67.879974
7369.140625	-67.403778
7370.117188	-67.842697
7371.093750	-67.434494
7372.070312	-66.985176
7373.046875	-67.370628
7374.023438	-67.536407
7375.000000	-68.080391
7375.976562	-67.842140
7376.953125	-67.409325
7377.929688	-68.205994
7378.906250	-67.154785
7379.882812	-67.162300
7380.859375	-68.482788
7381.835938	-67.877129
7382.812500	-68.587456
7383.789062	-68.503708
7384.765625	-67.507477
7385.742188	-68.169540
7386.718750	-68.035873
7387.695312	-67.635292
7388.671875	-68.049507
7389.648438	-68.781319
7390.625000	-68.741737
7391.601562	-68.749016
7392.578125	-68.341820
7393.554688	-68.367088
7394.531250	-68.643173
7395.507812	-67.897400
7396.484375	-69.216515
7397.460938	-69.012718
7398.437500	-68.548325
7399.414062	-68.982040
7400.390625	-68.150955
7401.367188	-68.921974
7402.343750	-69.171677
7403.320312	-68.955605
7404.296875	-68.071442
7405.273438	-69.343987
7406.250000	-69.215576
7407.226562	-69.294319
7408.203125	-69.203018
7409.179688	-69.399803
7410.156250	-68.591476
7411.132812	-68.703529
7412.109375	-68.842682
7413.085938	-70.416374
7414.062500	-69.569817
7415.039062	-68.780708
7416.015625	-69.163246
7416.992188	-69.345398
7417.968750	-69.235245
7418.945312	-69.920685
7419.921875	-68.957069
7420.898438	-69.761925
7421.875000	-69.720245
7422.851562	-70.261185
7423.828125	-70.277496
7424.804688	-70.071442
7425.781250	-70.527573
7426.757812	-70.263100
7427.734375	-68.820015
7428.710938	-71.773582
7429.687500	-71.010834
7430.664062	-71.853470
7431.640625	-71.290947
7432.617188	-70.992180
7433.593750	-71.865540
7434.570312	-71.135651
7435.546875	-71.007988
7436.523438	-71.429062
7437.500000	-71.643539
7438.476562	-71.268326
7439.453125	-71.466125
7440.429688	-71.767265
7441.406250	-71.666946
7442.382812	-72.257614
7443.359375	-72.208221
7444.335938	-71.421097
7445.312500	-71.986351
7446.289062	-72.017929
7447.265625	-72.296768
7448.242188	-71.862198
7449.218750	-71.713760
7450.195312	-72.314804
7451.171875	-72.283379
7452.148438	-72.824539
7453.125000	-72.872421
7454.101562	-72.822632
7455.078125	-73.059975
7456.054688	-72.898399
7457.031250	-72.235977
7458.007812	-73.489349
7458.984375	-73.760315
7459.960938	-73.275421
7460.937500	-72.420258
7461.914062	-72.630470
7462.890625	-72.928856
7463.867188	-72.469650
7464.843750	-72.770584
7465.820312	-73.366768
7466.796875	-72.988190
7467.773438	-73.260231
7468.750000	-73.512085
7469.726562	-73.406990
7470.703125	-74.104591
7471.679688	-73.557861
7472.656250	-73.273773
7473.632812	-74.139313
7474.609375	-74.310631
7475.585938	-74.277832
7476.562500	-73.949127
7477.539062	-74.059113
7478.515625	-75.261642
7479.492188	-74.760262
7480.468750	-75.139977
7481.445312	-75.949348
7482.421875	-74.509705
7483.398438	-75.668060
7484.375000	-75.788025
7485.351562	-75.273041
7486.328125	-75.132660
7487.304688	-75.173424
7488.281250	-74.863976
7489.257812	-75.972382
7490.234375	-76.338890
7491.210938	-76.123886
7492.187500	-75.050240
7493.164062	-75.579681
7494.140625	-76.030113
7495.117188	-75.914375
7496.093750	-75.392372
7497.070312	-76.400940
7498.046875	-76.657448
7499.023438	-76.743141
7500.000000	-76.421783
7500.976562	-75.649239
7501.953125	-76.385452
7502.929688	-75.951790
7503.906250	-76.385185
7504.882812	-76.257576
7505.859375	-77.242043
7506.835938	-76.963776
7507.812500	-77.044838
7508.789062	-76.632965
7509.765625	-76.274559
7510.742188	-77.373528
7511.718750	-76.914513
7512.695312	-76.958168
7513.671875	-77.137413
7514.648438	-77.049232
7515.625000	-77.151237
7516.601562	-76.832245
7517.578125	-77.138809
7518.554688	-77.353920
7519.531250	-77.646057
7520.507812	-77.587883
7521.484375	-78.004433
7522.460938	-77.760475
7523.437500	-78.363289
7524.414062	-78.810272
7525.390625	-78.022270
7526.367188	-78.422874
7527.343750	-77.766640
7528.320312	-78.395279
7529.296875	-77.929382
7530.273438	-78.511856
7531.250000	-78.500824
7532.226562	-78.776924
7533.203125	-77.973602
7534.179688	-78.156113
7535.156250	-78.569550
7536.132812	-78.867294
7537.109375	-78.885780
7538.085938	-79.148720
7539.062500	-79.068741
7540.039062	-79.229385
7541.015625	-79.477066
7541.992188	-79.561188
7542.968750	-78.805099
7543.945312	-79.028847
7544.921875	-78.750565
7545.898438	-79.257118
7546.875000	-79.476051
7547.851562	-79.585480
7548.828125	-80.186172
7549.804688	-79.195778
7550.781250	-79.234657
7551.757812	-78.734787
7552.734375	-79.367287
7553.710938	-80.061974
7554.687500	-79.854233
7555.664062	-80.009148
7556.640625	-80.583008
7557.617188	-80.039482
7558.593750	-80.147980
7559.570312	-79.569763
7560.546875	-79.403908
7561.523438	-80.261765
7562.500000	-80.051331
7563.476562	-80.283524
7564.453125	-80.501526
7565.429688	-80.166626
7566.406250	-80.247353
7567.382812	-80.212440
7568.359375	-80.731331
7569.335938	-80.779350
7570.312500	-80.514183
7571.289062	-80.379158
7572.265625	-80.454475
7573.242188	-80.076324
7574.218750	-80.531113
7575.195312	-80.911995
7576.171875	-80.895103
7577.148438	-80.749260
7578.125000	-80.625145
7579.101562	-81.092445
7580.078125	-81.147339
7581.054688	-81.159554
7582.031250	-81.521080
7583.007812	-81.154961
7583.984375	-81.424286
7584.960938	-81.282799
7585.937500	-81.882317
7586.914062	-81.477516
7587.890625	-81.196075
7588.867188	-81.788635
7589.843750	-81.692482
7590.820312	-81.540428
7591.796875	-81.831154
7592.773438	-81.379295
7593.750000	-81.161713
7594.726562	-82.151031
7595.703125	-82.387054
7596.679688	-82.332024
7597.656250	-81.885635
7598.632812	-82.046356
7599.609375	-82.045647
7600.585938	-82.161469
7601.562500	-82.007370
7602.539062	-82.026985
7603.515625	-82.464233
7604.492188	-82.068581
7605.468750	-82.608528
7606.445312	-82.562431
7607.421875	-82.275436
7608.398438	-81.811073
7609.375000	-82.262352
7610.351562	-82.591331
7611.328125	-82.314308
7612.304688	-82.833313
7613.281250	-82.791656
7614.257812	-82.648140
7615.234375	-82.219879
7616.210938	-82.620598
7617.187500	-83.072121
7618.164062	-82.938301
7619.140625	-82.498421
7620.117188	-82.735352
7621.093750	-82.506371
7622.070312	-82.690895
7623.046875	-83.196114
7624.023438	-82.907898
7625.000000	-83.103691
7625.976562	-83.320633
7626.953125	-83.156113
7627.929688	-83.230255
7628.906250	-83.383942
7629.882812	-83.343315
7630.859375	-83.277962
7631.835938	-82.896515
7632.812500	-83.177994
7633.789062	-83.364822
7634.765625	-83.076378
7635.742188	-83.653526
7636.718750	-83.596268
7637.695312	-83.597160
7638.671875	-83.353645
7639.648438	-83.504486
7640.625000	-83.581924
7641.601562	-83.640717
7642.578125	-83.385796
7643.554688	-83.682877
7644.531250	-83.883446
7645.507812	-84.025299
7646.484375	-84.053192
7647.460938	-83.460854
7648.437500	-83.916626
7649.414062	-83.979103
7650.390625	-83.825226
7651.367188	-83.426720
7652.343750	-83.785683
7653.320312	-84.122498
7654.296875	-84.451790
7655.273438	-84.033035
7656.250000	-83.801140
7657.226562	-84.123001
7658.203125	-84.162056
7659.179688	-84.227341
7660.156250	-83.920746
7661.132812	-84.063225
7662.109375	-84.136147
7663.085938	-84.259369
7664.062500	-84.324646
7665.039062	-84.226822
7666.015625	-84.239510
7666.992188	-84.235489
7667.968750	-84.268166
7668.945312	-84.364433
7669.921875	-84.383179
7670.898438	-84.317444
7671.875000	-84.215698
7672.851562	-84.409676
7673.828125	-84.226624
7674.804688	-84.300194
7675.781250	-83.965256
7676.757812	-84.448875
7677.734375	-84.279373
7678.710938	-84.387268
7679.687500	-84.580635
7680.664062	-84.137894
7681.640625	-84.409935
7682.617188	-84.494064
7683.593750	-84.696602
7684.570312	-84.530602
7685.546875	-84.394279
7686.523438	-84.310631
7687.500000	-84.471939
7688.476562	-84.498032
7689.453125	-84.633926
7690.429688	-84.520157
7691.406250	-84.562378
7692.382812	-84.649872
7693.359375	-84.581573
7694.335938	-84.577690
7695.312500	-84.566559
7696.289062	-84.487022
7697.265625	-84.648224
7698.242188	-84.632050
7699.218750	-84.672440
7700.195312	-84.539543
7701.171875	-84.480324
7702.148438	-84.604507
7703.125000	-84.517937
7704.101562	-84.621071
7705.078125	-84.531082
7706.054688	-84.617287
7707.031250	-84.451096
7708.007812	-84.566818
7708.984375	-84.569221
7709.960938	-84.558876
7710.937500	-84.707619
7711.914062	-84.570312
7712.890625	-84.603683
7713.867188	-84.806953
7714.843750	-84.514328
7715.820312	-84.672989
7716.796875	-84.705605
7717.773438	-84.689758
7718.750000	-84.703018
7719.726562	-84.687111
7720.703125	-84.677948
7721.679688	-84.686966
7722.656250	-84.601654
7723.632812	-84.641754
7724.609375	-84.767593
7725.585938	-84.695465
7726.562500	-84.740784
7727.539062	-84.758110
7728.515625	-84.735474
7729.492188	-84.751717
7730.468750	-84.690994
7731.445312	-84.773712
7732.421875	-84.756317
7733.398438	-84.694153
7734.375000	-84.661011
7735.351562	-84.696198
7736.328125	-84.814499
7737.304688	-84.657768
7738.281250	-84.783722
7739.257812	-84.656570
7740.234375	-84.642632
7741.210938	-84.787338
7742.187500	-84.678810
7743.164062	-84.770050
7744.140625	-84.684929
7745.117188	-84.728691
7746.093750	-84.707680
7747.070312	-84.733322
7748.046875	-84.701660
7749.023438	-84.729362
7750.000000	-84.841690
7750.976562	-84.825157
7751.953125	-84.781654
7752.929688	-84.746895
7753.906250	-84.754143
7754.882812	-84.806053
7755.859375	-84.773651
7756.835938	-84.768349
7757.812500	-84.686295
7758.789062	-84.782127
7759.765625	-84.817383
7760.742188	-84.808640
7761.718750	-84.756729
7762.695312	-84.790215
7763.671875	-84.782051
7764.648438	-84.787109
7765.625000	-84.835190
7766.601562	-84.767509
7767.578125	-84.818733
7768.554688	-84.812920
7769.531250	-84.738113
7770.507812	-84.775169
7771.484375	-84.795341
7772.460938	-84.793823
7773.437500	-84.782845
7774.414062	-84.823212
7775.390625	-84.780678
7776.367188	-84.790199
7777.343750	-84.797729
7778.320312	-84.789307
7779.296875	-84.777832
7780.273438	-84.798347
7781.250000	-84.791420
7782.226562	-84.810616
7783.203125	-84.864235
7784.179688	-84.793900
7785.156250	-84.809242
7786.132812	-84.810745
7787.109375	-84.808975
7788.085938	-84.798317
7789.062500	-84.822487
7790.039062	-84.808197
7791.015625	-84.822495
7791.992188	-84.796722
7792.968750	-84.825424
7793.945312	-84.807121
7794.921875	-84.811165
7795.898438	-84.789116
7796.875000	-84.776901
7797.851562	-84.829178
7798.828125	-84.818108
7799.804688	-84.831429
7800.781250	-84.831337
7801.757812	-84.809753
7802.734375	-84.836388
7803.710938	-84.812614
7804.687500	-84.839638
7805.664062	-84.818626
7806.640625	-84.831451
7807.617188	-84.822105
7808.593750	-84.830299
7809.570312	-84.807373
7810.546875	-84.839615
7811.523438	-84.834145
7812.500000	-84.826752
7813.476562	-84.835381
7814.453125	-84.838318
7815.429688	-84.826309
7816.406250	-84.821365
7817.382812	-84.824219
7818.359375	-84.840599
7819.335938	-84.833061
7820.312500	-84.832375
7821.289062	-84.844154
7822.265625	-84.830070
7823.242188	-84.827934
7824.218750	-84.823708
7825.195312	-84.828613
7826.171875	-84.833084
7827.148438	-84.821167
7828.125000	-84.836441
7829.101562	-84.833771
7830.078125	-84.822701
7831.054688	-84.838402
7832.031250	-84.841118
7833.007812	-84.845230
7833.984375	-84.834503
7834.960938	-84.836098
7835.937500	-84.839157
7836.914062	-84.849411
7837.890625	-84.845001
7838.867188	-84.838776
7839.843750	-84.846336
7840.820312	-84.842049
7841.796875	-84.841835
7842.773438	-84.839767
7843.750000	-84.843948
7844.726562	-84.836327
7845.703125	-84.839981
7846.679688	-84.843704
7847.656250	-84.843620
7848.632812	-84.844925
7849.609375	-84.847588
7850.585938	-84.844788
7851.562500	-84.844055
7852.539062	-84.847282
7853.515625	-84.847504
7854.492188	-84.849884
7855.468750	-84.842499
7856.445312	-84.841698
7857.421875	-84.848991
7858.398438	-84.849655
7859.375000	-84.846611
7860.351562	-84.853073
7861.328125	-84.848885
7862.304688	-84.845909
7863.281250	-84.852150
7864.257812	-84.848389
7865.234375	-84.850220
7866.210938	-84.849564
7867.187500	-84.849960
7868.164062	-84.854240
7869.140625	-84.848251
7870.117188	-84.851440
7871.093750	-84.853561
7872.070312	-84.854134
7873.046875	-84.852417
7874.023438	-84.853630
7875.000000	-84.852966
7875.976562	-84.854195
7876.953125	-84.853554
7877.929688	-84.855209
7878.906250	-84.856766
7879.882812	-84.854027
7880.859375	-84.857521
7881.835938	-84.858566
7882.812500	-84.857635
7883.789062	-84.855164
7884.765625	-84.855820
7885.742188	-84.856834
7886.718750	-84.858490
7887.695312	-84.858856
7888.671875	-84.859245
7889.648438	-84.859444
7890.625000	-84.860008
7891.601562	-84.858574
7892.578125	-84.858452
7893.554688	-84.858925
7894.531250	-84.858833
7895.507812	-84.860344
7896.484375	-84.860939
7897.460938	-84.860352
7898.437500	-84.860252
7899.414062	-84.861847
7900.390625	-84.861481
7901.367188	-84.861717
7902.343750	-84.863419
7903.320312	-84.861855
7904.296875	-84.862030
7905.273438	-84.862770
7906.250000	-84.861885
7907.226562	-84.862930
7908.203125	-84.863152
7909.179688	-84.863770
7910.156250	-84.863380
7911.132812	-84.864029
7912.109375	-84.863640
7913.085938	-84.864914
7914.062500	-84.865067
7915.039062	-84.864944
7916.015625	-84.865334
7916.992188	-84.864647
7917.968750	-84.865677
7918.945312	-84.865372
7919.921875	-84.865585
7920.898438	-84.865585
7921.875000	-84.866272
7922.851562	-84.866272
7923.828125	-84.866753
7924.804688	-84.866806
7925.781250	-84.866501
7926.757812	-84.867027
7927.734375	-84.867310
7928.710938	-84.867393
7929.687500	-84.867821
7930.664062	-84.867386
7931.640625	-84.868027
7932.617188	-84.867920
7933.593750	-84.868172
7934.570312	-84.868080
7935.546875	-84.868462
7936.523438	-84.868752
7937.500000	-84.869026
7938.476562	-84.869133
7939.453125	-84.869217
7940.429688	-84.869125
7941.406250	-84.869286
7942.382812	-84.869537
7943.359375	-84.869629
7944.335938	-84.869751
7945.312500	-84.870010
7946.289062	-84.870094
7947.265625	-84.870277
7948.242188	-84.870270
7949.218750	-84.870407
7950.195312	-84.870605
7951.171875	-84.870743
7952.148438	-84.870697
7953.125000	-84.870895
7954.101562	-84.870918
7955.078125	-84.871117
7956.054688	-84.871216
7957.031250	-84.871338
7958.007812	-84.871368
7958.984375	-84.871521
7959.960938	-84.871666
7960.937500	-84.871712
7961.914062	-84.871788
7962.890625	-84.871887
7963.867188	-84.871994
7964.843750	-84.872070
7965.820312	-84.872169
7966.796875	-84.872261
7967.773438	-84.872307
7968.750000	-84.872368
7969.726562	-84.872437
7970.703125	-84.872536
7971.679688	-84.872604
7972.656250	-84.872681
7973.632812	-84.872711
7974.609375	-84.872772
7975.585938	-84.872841
7976.562500	-84.872887
7977.539062	-84.872948
7978.515625	-84.872993
7979.492188	-84.873062
7980.468750	-84.873093
7981.445312	-84.873146
7982.421875	-84.873207
7983.398438	-84.873245
7984.375000	-84.873268
7985.351562	-84.873322
7986.328125	-84.873322
7987.304688	-84.873367
7988.281250	-84.873367
7989.257812	-84.873436
7990.234375	-84.873482
7991.210938	-84.873482
7992.187500	-84.873497
7993.164062	-84.873512
7994.140625	-84.873489
7995.117188	-84.873535
7996.093750	-84.873535
7997.070312	-84.873566
7998.046875	-84.873566
7999.023438	-84.873550
