Frequency (Hz)	Level (dB)
0.976562	-55.693432
1.953125	-50.665527
2.929688	-48.700031
3.906250	-46.899044
4.882812	-47.417099
5.859375	-51.478291
6.835938	-50.750744
7.812500	-50.072128
8.789062	-51.371704
9.765625	-51.269001
10.742188	-52.369221
11.718750	-51.535110
12.695312	-51.985390
13.671875	-51.907211
14.648438	-52.256523
15.625000	-52.601826
16.601562	-53.869064
17.578125	-54.590923
18.554688	-53.834854
19.531250	-52.844826
20.507812	-54.675602
21.484375	-56.327709
22.460938	-56.307526
23.437500	-57.148617
24.414062	-59.772354
25.390625	-60.180511
26.367188	-61.320690
27.343750	-61.828255
28.320312	-62.855400
29.296875	-62.874901
30.273438	-63.756653
31.250000	-64.116837
32.226562	-65.570335
33.203125	-65.870583
34.179688	-66.868294
35.156250	-67.436409
36.132812	-67.386513
37.109375	-67.964058
38.085938	-68.203949
39.062500	-67.361359
40.039062	-68.327644
41.015625	-68.629227
41.992188	-69.585579
42.968750	-69.537903
43.945312	-69.403061
44.921875	-70.001183
45.898438	-71.272102
46.875000	-70.683578
47.851562	-71.113167
48.828125	-71.564484
49.804688	-71.693451
50.781250	-72.061501
51.757812	-72.306305
52.734375	-74.036873
53.710938	-73.224236
54.687500	-73.337349
55.664062	-74.264061
56.640625	-74.579170
57.617188	-74.556221
58.593750	-74.864082
59.570312	-75.727196
60.546875	-75.795700
61.523438	-75.699165
62.500000	-76.976578
63.476562	-76.207596
64.453125	-76.866203
65.429688	-76.785271
66.406250	-77.558647
67.382812	-78.103882
68.359375	-77.967415
69.335938	-77.776672
70.312500	-78.466812
71.289062	-78.104874
72.265625	-79.184883
73.242188	-78.190742
74.218750	-78.830421
75.195312	-79.479156
76.171875	-79.171768
77.148438	-78.847527
78.125000	-79.371849
79.101562	-80.124245
80.078125	-79.486313
81.054688	-79.546104
82.031250	-79.998947
83.007812	-79.459923
83.984375	-80.051315
84.960938	-79.439987
85.937500	-80.112740
86.914062	-80.146820
87.890625	-80.869797
88.867188	-81.043526
89.843750	-81.214333
90.820312	-81.077835
91.796875	-80.502197
92.773438	-81.022049
93.750000	-80.479767
94.726562	-79.818085
95.703125	-80.125267
96.679688	-80.048035
97.656250	-79.569870
98.632812	-80.508018
99.609375	-79.566269
100.585938	-79.997749
101.562500	-81.017807
102.539062	-80.321190
103.515625	-80.218094
104.492188	-81.113297
105.468750	-81.540131
106.445312	-80.451439
107.421875	-80.909920
108.398438	-81.805283
109.375000	-81.080330
110.351562	-81.668648
111.328125	-81.432732
112.304688	-82.319138
113.281250	-81.894226
114.257812	-82.839088
115.234375	-82.139931
116.210938	-81.638641
117.187500	-82.068993
118.164062	-82.116310
119.140625	-81.936546
120.117188	-82.038551
121.093750	-81.808929
122.070312	-81.789406
123.046875	-82.481812
124.023438	-81.643547
125.000000	-81.545380
125.976562	-81.305397
126.953125	-81.073204
127.929688	-82.025154
128.906250	-82.292778
129.882812	-81.887131
130.859375	-83.090485
131.835938	-81.463898
132.812500	-79.645226
133.789062	-79.974197
134.765625	-82.420486
135.742188	-82.082680
136.718750	-83.204483
137.695312	-81.316277
138.671875	-82.836525
139.648438	-81.977211
140.625000	-82.833405
141.601562	-82.281479
142.578125	-83.124947
143.554688	-83.125351
144.531250	-83.495483
145.507812	-83.064346
146.484375	-83.155296
147.460938	-82.630219
148.437500	-82.812973
149.414062	-82.281303
150.390625	-82.771828
151.367188	-83.411911
152.343750	-84.016228
153.320312	-83.715416
154.296875	-83.734268
155.273438	-83.915169
156.250000	-84.165154
157.226562	-83.905762
158.203125	-83.644104
159.179688	-84.049156
160.156250	-83.637863
161.132812	-84.701469
162.109375	-85.088425
163.085938	-85.543228
164.062500	-86.018471
165.039062	-85.355354
166.015625	-84.936020
166.992188	-85.184845
167.968750	-85.082909
168.945312	-85.976936
169.921875	-86.924652
170.898438	-85.932640
171.875000	-86.174904
172.851562	-85.510307
173.828125	-86.473656
174.804688	-85.512947
175.781250	-86.661224
176.757812	-85.999916
177.734375	-86.521606
178.710938	-85.797852
179.687500	-86.598923
180.664062	-87.093513
181.640625	-87.586838
182.617188	-88.309288
183.593750	-88.155357
184.570312	-88.222824
185.546875	-87.152405
186.523438	-87.306480
187.500000	-87.448425
188.476562	-87.954613
189.453125	-87.753143
190.429688	-88.520180
191.406250	-87.442581
192.382812	-87.168861
193.359375	-86.762901
194.335938	-87.408691
195.312500	-87.430222
196.289062	-86.444267
197.265625	-86.533432
198.242188	-85.294510
199.218750	-86.287025
200.195312	-86.099770
201.171875	-85.810204
202.148438	-85.840469
203.125000	-86.253769
204.101562	-85.510643
205.078125	-84.919510
206.054688	-84.932426
207.031250	-84.521988
208.007812	-85.046127
208.984375	-85.101036
209.960938	-85.515335
210.937500	-85.013870
211.914062	-84.781593
212.890625	-84.893623
213.867188	-84.554756
214.843750	-83.962845
215.820312	-83.373863
216.796875	-83.379089
217.773438	-83.084717
218.750000	-83.752510
219.726562	-83.452736
220.703125	-82.935921
221.679688	-83.107101
222.656250	-83.654205
223.632812	-83.169243
224.609375	-82.963440
225.585938	-83.231796
226.562500	-82.616257
227.539062	-82.434418
228.515625	-81.873589
229.492188	-81.680519
230.468750	-82.678032
231.445312	-82.566849
232.421875	-81.620247
233.398438	-81.747162
234.375000	-80.268814
235.351562	-80.162880
236.328125	-80.272133
237.304688	-81.019180
238.281250	-80.789024
239.257812	-81.438126
240.234375	-80.911171
241.210938	-81.452240
242.187500	-81.754089
243.164062	-80.981209
244.140625	-81.128952
245.117188	-81.043938
246.093750	-80.669960
247.070312	-81.052788
248.046875	-82.282967
249.023438	-81.975266
250.000000	-83.319344
250.976562	-82.076843
251.953125	-82.032646
252.929688	-82.362770
253.906250	-82.929718
254.882812	-83.200539
255.859375	-82.674660
256.835938	-82.943657
257.812500	-83.336479
258.789062	-83.108017
259.765625	-83.649475
260.742188	-83.376656
261.718750	-82.934639
262.695312	-84.142921
263.671875	-83.978989
264.648438	-83.952606
265.625000	-83.905190
266.601562	-83.567917
267.578125	-84.314507
268.554688	-83.718712
269.531250	-84.554291
270.507812	-84.788643
271.484375	-84.265236
272.460938	-84.502342
273.437500	-84.139748
274.414062	-84.465904
275.390625	-84.672882
276.367188	-84.137474
277.343750	-84.595459
278.320312	-83.822739
279.296875	-84.676315
280.273438	-85.522324
281.250000	-84.858261
282.226562	-85.836334
283.203125	-85.258400
284.179688	-85.212929
285.156250	-84.988068
286.132812	-85.016541
287.109375	-85.708633
288.085938	-86.276527
289.062500	-85.603516
290.039062	-85.562050
291.015625	-85.328629
291.992188	-85.558876
292.968750	-85.406288
293.945312	-84.880150
294.921875	-85.566444
295.898438	-85.234932
296.875000	-85.634972
297.851562	-86.707626
298.828125	-85.452675
299.804688	-85.577316
300.781250	-85.517509
301.757812	-85.681404
302.734375	-85.416710
303.710938	-85.291412
304.687500	-85.708397
305.664062	-85.291412
306.640625	-85.943703
307.617188	-85.775505
308.593750	-85.817085
309.570312	-85.633530
310.546875	-85.702454
311.523438	-85.424385
312.500000	-86.193047
313.476562	-85.208046
314.453125	-85.659035
315.429688	-85.378746
316.406250	-85.788033
317.382812	-85.589424
318.359375	-85.254356
319.335938	-85.468040
320.312500	-85.348221
321.289062	-84.657471
322.265625	-84.963120
323.242188	-84.956261
324.218750	-85.310333
325.195312	-85.007751
326.171875	-85.201675
327.148438	-85.303810
328.125000	-85.468460
329.101562	-84.669289
330.078125	-85.477379
331.054688	-84.737755
332.031250	-84.654274
333.007812	-85.372154
333.984375	-84.193352
334.960938	-84.366722
335.937500	-84.757782
336.914062	-85.544769
337.890625	-85.209763
338.867188	-84.679100
339.843750	-84.519592
340.820312	-83.763557
341.796875	-85.221031
342.773438	-84.723816
343.750000	-83.334702
344.726562	-84.860268
345.703125	-84.725418
346.679688	-84.078888
347.656250	-84.347763
348.632812	-84.463463
349.609375	-84.113358
350.585938	-84.407684
351.562500	-84.308395
352.539062	-84.092659
353.515625	-84.556915
354.492188	-84.083008
355.468750	-84.569969
356.445312	-84.357216
357.421875	-84.223671
358.398438	-83.665100
359.375000	-84.094337
360.351562	-83.123611
361.328125	-84.523598
362.304688	-84.113396
363.281250	-83.715714
364.257812	-83.941040
365.234375	-83.405968
366.210938	-82.845016
367.187500	-83.248528
368.164062	-82.120827
369.140625	-82.328156
370.117188	-82.966652
371.093750	-82.873695
372.070312	-81.740585
373.046875	-82.042442
374.023438	-81.870567
375.000000	-82.844406
375.976562	-82.035149
376.953125	-81.803635
377.929688	-82.861649
378.906250	-82.938896
379.882812	-82.278656
380.859375	-81.836639
381.835938	-81.951958
382.812500	-82.095062
383.789062	-82.842102
384.765625	-82.366829
385.742188	-81.245827
386.718750	-80.928017
387.695312	-81.705170
388.671875	-82.043381
389.648438	-81.622536
390.625000	-81.729485
391.601562	-81.399704
392.578125	-82.309509
393.554688	-82.227798
394.531250	-80.988548
395.507812	-81.859299
396.484375	-81.775917
397.460938	-82.244881
398.437500	-81.526535
399.414062	-80.757751
400.390625	-81.372299
401.367188	-82.565582
402.343750	-82.011002
403.320312	-81.342484
404.296875	-81.561317
405.273438	-81.536461
406.250000	-82.174156
407.226562	-82.038124
408.203125	-81.467949
409.179688	-81.568832
410.156250	-81.507568
411.132812	-81.614601
412.109375	-81.250061
413.085938	-81.774361
414.062500	-82.531929
415.039062	-81.455605
416.015625	-80.715240
416.992188	-81.676949
417.968750	-81.660622
418.945312	-81.479645
419.921875	-81.411491
420.898438	-81.260513
421.875000	-81.463036
422.851562	-80.513397
423.828125	-81.430656
424.804688	-80.966370
425.781250	-80.928696
426.757812	-81.779144
427.734375	-81.383965
428.710938	-81.913452
429.687500	-81.592926
430.664062	-81.383850
431.640625	-81.588333
432.617188	-82.138084
433.593750	-82.366776
434.570312	-82.408066
435.546875	-82.214287
436.523438	-82.258080
437.500000	-81.722084
438.476562	-82.096619
439.453125	-82.914764
440.429688	-82.288971
441.406250	-81.981567
442.382812	-82.874481
443.359375	-82.349083
444.335938	-81.792122
445.312500	-82.159714
446.289062	-82.377495
447.265625	-82.661964
448.242188	-82.317795
449.218750	-82.411049
450.195312	-82.136040
451.171875	-82.885643
452.148438	-82.777626
453.125000	-82.468391
454.101562	-83.383682
455.078125	-81.930779
456.054688	-82.952042
457.031250	-82.641449
458.007812	-82.839508
458.984375	-82.900482
459.960938	-82.512398
460.937500	-83.058182
461.914062	-83.551613
462.890625	-83.133583
463.867188	-82.597221
464.843750	-83.339615
465.820312	-83.099945
466.796875	-82.848198
467.773438	-82.880562
468.750000	-82.492142
469.726562	-83.204338
470.703125	-83.349434
471.679688	-82.853600
472.656250	-83.072624
473.632812	-83.246147
474.609375	-82.903381
475.585938	-83.043182
476.562500	-82.436996
477.539062	-83.382156
478.515625	-82.967728
479.492188	-83.045349
480.468750	-81.979774
481.445312	-82.573967
482.421875	-82.986420
483.398438	-83.105713
484.375000	-83.000702
485.351562	-83.271736
486.328125	-83.000191
487.304688	-83.932213
488.281250	-83.182938
489.257812	-83.017387
490.234375	-82.771835
491.210938	-82.504890
492.187500	-82.261864
493.164062	-83.138863
494.140625	-82.657875
495.117188	-82.610840
496.093750	-83.329536
497.070312	-82.325531
498.046875	-82.976196
499.023438	-82.617722
500.000000	-81.990807
500.976562	-81.952461
501.953125	-82.038368
502.929688	-82.412651
503.906250	-82.111649
504.882812	-82.445450
505.859375	-82.617180
506.835938	-82.532341
507.812500	-82.123016
508.789062	-81.848000
509.765625	-81.782524
510.742188	-82.024963
511.718750	-81.665443
512.695312	-81.704361
513.671875	-81.655853
514.648438	-80.867073
515.625000	-81.525345
516.601562	-81.535210
517.578125	-81.247902
518.554688	-81.852737
519.531250	-80.965179
520.507812	-80.765976
521.484375	-80.534157
522.460938	-81.004501
523.437500	-80.549278
524.414062	-80.513519
525.390625	-80.459679
526.367188	-80.654251
527.343750	-80.969002
528.320312	-80.416405
529.296875	-80.423073
530.273438	-79.802002
531.250000	-79.906609
532.226562	-79.600250
533.203125	-79.495132
534.179688	-80.022957
535.156250	-79.688011
536.132812	-78.744873
537.109375	-79.210037
538.085938	-79.556923
539.062500	-79.368546
540.039062	-78.304787
541.015625	-78.120316
541.992188	-78.440056
542.968750	-78.924431
543.945312	-78.290710
544.921875	-78.852661
545.898438	-78.381065
546.875000	-77.672203
547.851562	-78.327919
548.828125	-77.772377
549.804688	-77.993301
550.781250	-78.121788
551.757812	-77.203827
552.734375	-76.879456
553.710938	-77.312828
554.687500	-76.682083
555.664062	-76.010315
556.640625	-76.944138
557.617188	-77.088043
558.593750	-76.248466
559.570312	-76.932541
560.546875	-76.241692
561.523438	-75.884895
562.500000	-76.635033
563.476562	-76.791611
564.453125	-76.153358
565.429688	-75.397781
566.406250	-76.456512
567.382812	-75.854057
568.359375	-75.674637
569.335938	-75.938644
570.312500	-76.311813
571.289062	-75.172073
572.265625	-75.872902
573.242188	-75.198654
574.218750	-75.193649
575.195312	-75.791054
576.171875	-75.405708
577.148438	-75.048752
578.125000	-75.357010
579.101562	-75.358528
580.078125	-75.087753
581.054688	-75.616615
582.031250	-76.013863
583.007812	-75.148659
583.984375	-76.112366
584.960938	-76.697418
585.937500	-75.828262
586.914062	-76.050957
587.890625	-75.341156
588.867188	-76.238052
589.843750	-75.877014
590.820312	-75.584702
591.796875	-75.863678
592.773438	-76.202362
593.750000	-75.878235
594.726562	-75.818497
595.703125	-75.171692
596.679688	-76.245049
597.656250	-76.382721
598.632812	-75.702431
599.609375	-76.231262
600.585938	-76.096626
601.562500	-75.419601
602.539062	-76.527420
603.515625	-76.411911
604.492188	-76.925705
605.468750	-75.587265
606.445312	-76.220955
607.421875	-76.888519
608.398438	-76.750267
609.375000	-76.454475
610.351562	-76.899452
611.328125	-75.934174
612.304688	-76.702782
613.281250	-76.838638
614.257812	-76.784477
615.234375	-76.415306
616.210938	-77.281013
617.187500	-77.491669
618.164062	-77.322212
619.140625	-77.149445
620.117188	-78.074791
621.093750	-77.098358
622.070312	-76.646332
623.046875	-77.094612
624.023438	-77.191429
625.000000	-77.723579
625.976562	-76.792648
626.953125	-77.281380
627.929688	-77.763718
628.906250	-77.522041
629.882812	-77.626053
630.859375	-78.394508
631.835938	-77.343491
632.812500	-77.636246
633.789062	-77.552635
634.765625	-77.506737
635.742188	-77.798691
636.718750	-77.709000
637.695312	-77.031288
638.671875	-77.506866
639.648438	-77.995697
640.625000	-78.019424
641.601562	-78.045738
642.578125	-78.114204
643.554688	-78.799385
644.531250	-77.723778
645.507812	-77.697914
646.484375	-77.676025
647.460938	-77.484695
648.437500	-78.630501
649.414062	-78.377655
650.390625	-78.011024
651.367188	-77.639839
652.343750	-77.843544
653.320312	-77.941315
654.296875	-78.918800
655.273438	-77.686028
656.250000	-78.438148
657.226562	-77.812401
658.203125	-77.520935
659.179688	-77.701248
660.156250	-77.764763
661.132812	-77.477264
662.109375	-77.852722
663.085938	-77.369659
664.062500	-77.042473
665.039062	-78.507858
666.015625	-78.322578
666.992188	-77.320877
667.968750	-77.708023
668.945312	-77.866051
669.921875	-77.668571
670.898438	-77.053879
671.875000	-77.662201
672.851562	-76.667404
673.828125	-77.316315
674.804688	-77.382927
675.781250	-76.890083
676.757812	-77.330872
677.734375	-77.627823
678.710938	-76.818657
679.687500	-76.935547
680.664062	-76.798416
681.640625	-76.021774
682.617188	-76.561104
683.593750	-76.419983
684.570312	-76.427155
685.546875	-76.133347
686.523438	-75.994865
687.500000	-75.678902
688.476562	-75.774857
689.453125	-75.364067
690.429688	-75.599518
691.406250	-75.205658
692.382812	-77.453156
693.359375	-75.541183
694.335938	-75.950241
695.312500	-75.078529
696.289062	-74.889519
697.265625	-74.523430
698.242188	-74.740051
699.218750	-74.905884
700.195312	-74.036491
701.171875	-74.609238
702.148438	-74.372459
703.125000	-74.122757
704.101562	-74.281281
705.078125	-74.084129
706.054688	-74.140633
707.031250	-73.533340
708.007812	-73.716446
708.984375	-74.128311
709.960938	-73.461845
710.937500	-73.035400
711.914062	-72.408867
712.890625	-72.983437
713.867188	-73.562286
714.843750	-72.923935
715.820312	-71.821304
716.796875	-72.976334
717.773438	-72.404770
718.750000	-72.106789
719.726562	-71.537422
720.703125	-72.340225
721.679688	-71.206909
722.656250	-70.311852
723.632812	-71.591057
724.609375	-71.342628
725.585938	-70.604713
726.562500	-71.492455
727.539062	-70.915985
728.515625	-71.201614
729.492188	-70.774803
730.468750	-69.761429
731.445312	-69.002556
732.421875	-69.924217
733.398438	-69.794144
734.375000	-69.927177
735.351562	-69.844589
736.328125	-68.606537
737.304688	-69.889961
738.281250	-70.188866
739.257812	-69.547249
740.234375	-69.168785
741.210938	-69.281944
742.187500	-68.731407
743.164062	-68.794739
744.140625	-68.811371
745.117188	-68.921165
746.093750	-69.520699
747.070312	-68.823341
748.046875	-69.329910
749.023438	-68.805397
750.000000	-68.563705
750.976562	-68.579399
751.953125	-69.202438
752.929688	-69.261459
753.906250	-69.332314
754.882812	-68.737717
755.859375	-69.640175
756.835938	-69.997215
757.812500	-70.166862
758.789062	-69.397354
759.765625	-69.554283
760.742188	-70.059044
761.718750	-69.717415
762.695312	-70.431496
763.671875	-69.925575
764.648438	-70.743027
765.625000	-70.401634
766.601562	-69.828056
767.578125	-70.857651
768.554688	-70.397018
769.531250	-70.784706
770.507812	-70.301300
771.484375	-71.878784
772.460938	-71.497093
773.437500	-70.981339
774.414062	-71.249847
775.390625	-71.850677
776.367188	-71.725548
777.343750	-72.041138
778.320312	-71.842651
779.296875	-70.701591
780.273438	-70.950134
781.250000	-73.044189
782.226562	-71.946480
783.203125	-71.913498
784.179688	-71.761353
785.156250	-71.969772
786.132812	-73.061714
787.109375	-72.308212
788.085938	-72.459610
789.062500	-72.008362
790.039062	-72.101753
791.015625	-73.231979
791.992188	-72.316483
792.968750	-71.804535
793.945312	-72.702446
794.921875	-72.560867
795.898438	-72.906311
796.875000	-72.624489
797.851562	-73.508156
798.828125	-73.001831
799.804688	-72.802338
800.781250	-73.023262
801.757812	-72.947792
802.734375	-73.371857
803.710938	-72.733032
804.687500	-73.858917
805.664062	-72.970917
806.640625	-73.351425
807.617188	-73.573051
808.593750	-72.644363
809.570312	-72.990532
810.546875	-72.854095
811.523438	-73.059296
812.500000	-73.585068
813.476562	-72.968735
814.453125	-73.040680
815.429688	-73.102310
816.406250	-73.079140
817.382812	-73.974045
818.359375	-73.563194
819.335938	-73.362427
820.312500	-73.754768
821.289062	-73.809334
822.265625	-73.953827
823.242188	-73.106400
824.218750	-73.810204
825.195312	-73.828514
826.171875	-72.739578
827.148438	-72.782074
828.125000	-73.128319
829.101562	-72.644386
830.078125	-73.558571
831.054688	-72.537552
832.031250	-73.180450
833.007812	-73.185272
833.984375	-72.772873
834.960938	-72.041656
835.937500	-72.594337
836.914062	-72.838295
837.890625	-72.740372
838.867188	-72.367714
839.843750	-72.510437
840.820312	-73.139969
841.796875	-72.177879
842.773438	-72.724251
843.750000	-72.028046
844.726562	-72.191628
845.703125	-72.429131
846.679688	-72.277901
847.656250	-72.552803
848.632812	-72.241043
849.609375	-71.938332
850.585938	-71.971375
851.562500	-71.499382
852.539062	-71.176353
853.515625	-71.844307
854.492188	-72.142700
855.468750	-72.123459
856.445312	-70.967201
857.421875	-70.675186
858.398438	-70.110657
859.375000	-69.990715
860.351562	-71.012901
861.328125	-70.963364
862.304688	-70.731224
863.281250	-70.785118
864.257812	-69.873260
865.234375	-70.597305
866.210938	-70.718719
867.187500	-69.427689
868.164062	-69.334221
869.140625	-69.915115
870.117188	-69.768562
871.093750	-68.814606
872.070312	-69.738716
873.046875	-69.298561
874.023438	-67.793404
875.000000	-68.324081
875.976562	-68.224136
876.953125	-68.984772
877.929688	-67.642006
878.906250	-68.132835
879.882812	-67.700577
880.859375	-68.013885
881.835938	-67.276115
882.812500	-66.775307
883.789062	-67.168190
884.765625	-67.621498
885.742188	-66.942596
886.718750	-66.487160
887.695312	-65.966400
888.671875	-66.695839
889.648438	-66.704597
890.625000	-66.085014
891.601562	-66.021156
892.578125	-65.398125
893.554688	-65.613419
894.531250	-65.057289
895.507812	-65.680115
896.484375	-64.663490
897.460938	-64.818031
898.437500	-64.917007
899.414062	-63.816158
900.390625	-64.426643
901.367188	-63.282269
902.343750	-63.247799
903.320312	-63.383072
904.296875	-63.548664
905.273438	-63.467186
906.250000	-63.434135
907.226562	-63.209110
908.203125	-63.430286
909.179688	-63.299164
910.156250	-62.740376
911.132812	-63.591381
912.109375	-62.703114
913.085938	-62.890846
914.062500	-63.230732
915.039062	-63.526249
916.015625	-63.673584
916.992188	-63.688709
917.968750	-62.883984
918.945312	-63.363201
919.921875	-63.112556
920.898438	-63.967030
921.875000	-63.489742
922.851562	-63.500820
923.828125	-62.701923
924.804688	-62.701511
925.781250	-62.631527
926.757812	-62.833439
927.734375	-63.580753
928.710938	-63.513737
929.687500	-63.834763
930.664062	-63.528328
931.640625	-63.733879
932.617188	-64.387398
933.593750	-64.471191
934.570312	-64.549606
935.546875	-64.628242
936.523438	-64.117149
937.500000	-64.843460
938.476562	-65.120171
939.453125	-64.984520
940.429688	-64.877762
941.406250	-65.270485
942.382812	-65.294189
943.359375	-65.853653
944.335938	-65.492828
945.312500	-65.538300
946.289062	-65.500832
947.265625	-65.759125
948.242188	-65.126549
949.218750	-66.046005
950.195312	-66.633995
951.171875	-66.215225
952.148438	-65.311996
953.125000	-66.700218
954.101562	-66.792831
955.078125	-66.660835
956.054688	-66.586479
957.031250	-66.431549
958.007812	-67.711151
958.984375	-66.904816
959.960938	-66.782272
960.937500	-66.163849
961.914062	-67.148003
962.890625	-67.551071
963.867188	-67.402321
964.843750	-67.414680
965.820312	-67.464439
966.796875	-68.046707
967.773438	-67.327560
968.750000	-67.610847
969.726562	-67.485779
970.703125	-67.121918
971.679688	-67.822906
972.656250	-66.959740
973.632812	-67.068871
974.609375	-67.055405
975.585938	-67.755714
976.562500	-68.221077
977.539062	-68.550896
978.515625	-68.577347
979.492188	-67.827759
980.468750	-67.940025
981.445312	-68.025253
982.421875	-68.512917
983.398438	-68.102242
984.375000	-67.371506
985.351562	-67.963280
986.328125	-67.323486
987.304688	-67.740005
988.281250	-67.531639
989.257812	-67.569572
990.234375	-67.814201
991.210938	-68.129219
992.187500	-67.401886
993.164062	-67.533722
994.140625	-68.101395
995.117188	-68.217766
996.093750	-68.306732
997.070312	-67.950668
998.046875	-68.527077
999.023438	-68.564575
1000.000000	-68.381317
1000.976562	-68.004860
1001.953125	-68.263481
1002.929688	-68.318420
1003.906250	-68.179253
1004.882812	-68.520927
1005.859375	-68.358047
1006.835938	-68.125565
1007.812500	-67.633385
1008.789062	-68.556023
1009.765625	-68.327164
1010.742188	-67.833572
1011.718750	-67.350967
1012.695312	-67.834328
1013.671875	-67.016693
1014.648438	-67.225731
1015.625000	-66.837830
1016.601562	-67.029976
1017.578125	-67.116699
1018.554688	-67.380348
1019.531250	-66.856140
1020.507812	-67.315872
1021.484375	-67.434235
1022.460938	-66.991829
1023.437500	-66.747162
1024.414062	-66.870255
1025.390625	-66.907265
1026.367188	-67.143219
1027.343750	-67.175903
1028.320312	-67.012474
1029.296875	-65.887123
1030.273438	-65.767593
1031.250000	-66.709595
1032.226562	-65.520821
1033.203125	-65.653603
1034.179688	-65.992325
1035.156250	-65.796501
1036.132812	-65.737183
1037.109375	-65.930336
1038.085938	-65.138817
1039.062500	-65.556534
1040.039062	-65.343971
1041.015625	-64.923622
1041.992188	-64.799500
1042.968750	-64.793159
1043.945312	-64.356819
1044.921875	-64.829788
1045.898438	-64.437325
1046.875000	-64.002716
1047.851562	-63.749668
1048.828125	-64.440987
1049.804688	-63.758987
1050.781250	-63.596992
1051.757812	-63.412071
1052.734375	-64.463799
1053.710938	-64.404778
1054.687500	-63.584888
1055.664062	-62.659088
1056.640625	-62.825069
1057.617188	-62.518269
1058.593750	-62.590519
1059.570312	-63.161137
1060.546875	-63.398460
1061.523438	-63.145344
1062.500000	-63.764832
1063.476562	-62.627838
1064.453125	-62.942802
1065.429688	-62.822742
1066.406250	-62.454231
1067.382812	-61.906391
1068.359375	-62.395237
1069.335938	-61.596283
1070.312500	-61.888702
1071.289062	-61.840336
1072.265625	-62.303940
1073.242188	-61.417709
1074.218750	-60.996754
1075.195312	-61.223434
1076.171875	-61.421322
1077.148438	-61.246700
1078.125000	-61.239185
1079.101562	-61.548698
1080.078125	-61.164742
1081.054688	-61.642265
1082.031250	-61.270634
1083.007812	-62.033710
1083.984375	-61.720676
1084.960938	-61.566196
1085.937500	-61.538273
1086.914062	-61.699306
1087.890625	-62.202396
1088.867188	-61.435150
1089.843750	-61.857304
1090.820312	-61.978004
1091.796875	-62.729103
1092.773438	-62.757931
1093.750000	-63.075951
1094.726562	-62.661465
1095.703125	-63.199162
1096.679688	-62.653744
1097.656250	-62.483753
1098.632812	-63.529896
1099.609375	-63.076824
1100.585938	-63.207367
1101.562500	-63.304363
1102.539062	-63.774555
1103.515625	-63.891991
1104.492188	-64.442604
1105.468750	-64.368263
1106.445312	-64.562653
1107.421875	-64.708038
1108.398438	-64.763741
1109.375000	-64.705742
1110.351562	-65.073715
1111.328125	-64.703827
1112.304688	-65.300110
1113.281250	-65.161430
1114.257812	-64.314880
1115.234375	-66.015915
1116.210938	-66.296219
1117.187500	-65.671371
1118.164062	-66.240440
1119.140625	-66.092148
1120.117188	-65.554680
1121.093750	-65.743469
1122.070312	-65.893036
1123.046875	-67.017853
1124.023438	-67.073814
1125.000000	-66.724365
1125.976562	-66.999954
1126.953125	-66.874924
1127.929688	-67.162544
1128.906250	-67.938950
1129.882812	-67.440315
1130.859375	-66.654434
1131.835938	-67.138588
1132.812500	-68.104004
1133.789062	-67.508057
1134.765625	-67.771584
1135.742188	-67.411049
1136.718750	-67.256485
1137.695312	-67.406921
1138.671875	-68.155144
1139.648438	-67.053886
1140.625000	-67.750862
1141.601562	-68.422409
1142.578125	-68.438126
1143.554688	-67.614876
1144.531250	-68.310463
1145.507812	-68.083595
1146.484375	-68.379967
1147.460938	-68.433022
1148.437500	-68.226891
1149.414062	-68.621216
1150.390625	-68.379562
1151.367188	-69.096146
1152.343750	-68.652275
1153.320312	-69.103951
1154.296875	-68.875984
1155.273438	-68.810493
1156.250000	-68.662056
1157.226562	-69.217537
1158.203125	-69.897346
1159.179688	-69.376236
1160.156250	-68.780472
1161.132812	-68.843903
1162.109375	-69.186485
1163.085938	-69.589935
1164.062500	-68.212120
1165.039062	-69.603676
1166.015625	-69.133209
1166.992188	-69.510658
1167.968750	-68.705910
1168.945312	-69.357857
1169.921875	-68.663773
1170.898438	-68.944817
1171.875000	-68.647568
1172.851562	-68.319969
1173.828125	-68.203896
1174.804688	-68.927856
1175.781250	-68.774185
1176.757812	-68.651001
1177.734375	-68.813370
1178.710938	-68.585922
1179.687500	-69.142395
1180.664062	-68.878265
1181.640625	-69.902397
1182.617188	-68.325722
1183.593750	-67.900146
1184.570312	-68.516373
1185.546875	-68.255348
1186.523438	-68.527237
1187.500000	-68.599838
1188.476562	-68.699608
1189.453125	-68.703178
1190.429688	-68.096855
1191.406250	-68.690948
1192.382812	-68.008003
1193.359375	-67.497391
1194.335938	-68.178535
1195.312500	-68.405319
1196.289062	-67.952583
1197.265625	-68.163116
1198.242188	-66.892738
1199.218750	-67.104179
1200.195312	-67.006866
1201.171875	-67.305267
1202.148438	-66.635597
1203.125000	-66.753319
1204.101562	-67.116844
1205.078125	-66.678925
1206.054688	-67.391464
1207.031250	-67.019585
1208.007812	-67.436859
1208.984375	-66.198708
1209.960938	-67.123611
1210.937500	-66.216454
1211.914062	-66.392616
1212.890625	-65.580696
1213.867188	-65.110397
1214.843750	-66.316666
1215.820312	-66.548393
1216.796875	-65.756638
1217.773438	-65.490395
1218.750000	-65.103065
1219.726562	-65.253868
1220.703125	-65.220894
1221.679688	-65.886169
1222.656250	-65.327179
1223.632812	-64.776756
1224.609375	-65.153839
1225.585938	-64.538269
1226.562500	-64.674393
1227.539062	-64.812157
1228.515625	-64.030869
1229.492188	-64.094589
1230.468750	-64.066986
1231.445312	-63.764706
1232.421875	-63.011604
1233.398438	-62.911003
1234.375000	-63.124619
1235.351562	-63.169212
1236.328125	-62.568985
1237.304688	-62.439774
1238.281250	-63.215958
1239.257812	-62.946678
1240.234375	-62.731709
1241.210938	-62.889938
1242.187500	-61.439877
1243.164062	-62.208805
1244.140625	-61.990223
1245.117188	-62.362904
1246.093750	-62.513184
1247.070312	-62.659245
1248.046875	-62.334957
1249.023438	-61.965317
1250.000000	-61.726139
1250.976562	-61.738636
1251.953125	-60.978470
1252.929688	-61.745022
1253.906250	-61.606380
1254.882812	-61.431427
1255.859375	-61.376102
1256.835938	-61.078617
1257.812500	-61.105171
1258.789062	-61.820652
1259.765625	-62.292892
1260.742188	-61.573292
1261.718750	-62.145988
1262.695312	-61.837101
1263.671875	-62.396317
1264.648438	-61.492973
1265.625000	-61.795612
1266.601562	-61.163773
1267.578125	-61.763863
1268.554688	-62.583500
1269.531250	-62.119724
1270.507812	-61.624382
1271.484375	-61.926197
1272.460938	-62.757687
1273.437500	-62.096432
1274.414062	-62.203033
1275.390625	-62.086838
1276.367188	-61.866734
1277.343750	-62.156105
1278.320312	-63.348709
1279.296875	-62.857990
1280.273438	-62.786587
1281.250000	-63.059193
1282.226562	-62.705681
1283.203125	-62.800938
1284.179688	-62.717445
1285.156250	-62.797165
1286.132812	-63.147240
1287.109375	-63.225784
1288.085938	-63.601349
1289.062500	-63.585670
1290.039062	-63.908421
1291.015625	-64.196068
1291.992188	-63.680325
1292.968750	-63.421799
1293.945312	-64.268967
1294.921875	-63.543686
1295.898438	-64.013107
1296.875000	-64.392273
1297.851562	-64.252098
1298.828125	-63.446304
1299.804688	-64.060822
1300.781250	-63.731503
1301.757812	-64.282150
1302.734375	-64.583923
1303.710938	-64.399849
1304.687500	-63.994835
1305.664062	-63.899174
1306.640625	-64.618263
1307.617188	-64.852165
1308.593750	-64.474831
1309.570312	-65.448540
1310.546875	-64.534882
1311.523438	-64.899734
1312.500000	-63.971169
1313.476562	-65.256859
1314.453125	-64.974289
1315.429688	-64.723274
1316.406250	-64.985680
1317.382812	-64.916290
1318.359375	-64.127647
1319.335938	-64.825592
1320.312500	-65.414742
1321.289062	-64.766357
1322.265625	-65.766373
1323.242188	-65.348183
1324.218750	-65.238983
1325.195312	-64.948250
1326.171875	-65.561836
1327.148438	-64.705177
1328.125000	-64.658081
1329.101562	-64.807663
1330.078125	-64.851425
1331.054688	-64.583740
1332.031250	-65.563141
1333.007812	-65.421387
1333.984375	-64.649704
1334.960938	-65.078407
1335.937500	-65.501915
1336.914062	-65.353195
1337.890625	-65.297165
1338.867188	-64.738266
1339.843750	-64.935509
1340.820312	-65.093491
1341.796875	-64.862305
1342.773438	-65.238594
1343.750000	-65.157089
1344.726562	-65.036751
1345.703125	-65.261086
1346.679688	-65.438507
1347.656250	-64.867340
1348.632812	-65.013947
1349.609375	-64.853958
1350.585938	-64.448082
1351.562500	-65.264771
1352.539062	-64.902710
1353.515625	-64.553947
1354.492188	-64.906914
1355.468750	-64.861855
1356.445312	-64.949142
1357.421875	-65.287437
1358.398438	-64.996208
1359.375000	-65.407722
1360.351562	-65.028297
1361.328125	-64.948433
1362.304688	-64.337097
1363.281250	-64.602600
1364.257812	-64.868797
1365.234375	-65.002739
1366.210938	-64.589066
1367.187500	-65.274605
1368.164062	-65.308395
1369.140625	-65.041718
1370.117188	-64.558388
1371.093750	-64.886375
1372.070312	-64.724792
1373.046875	-65.467941
1374.023438	-64.898865
1375.000000	-64.604317
1375.976562	-64.599876
1376.953125	-65.191231
1377.929688	-65.365753
1378.906250	-64.553200
1379.882812	-64.701721
1380.859375	-64.779869
1381.835938	-65.777298
1382.812500	-64.730354
1383.789062	-64.839340
1384.765625	-64.851349
1385.742188	-64.559883
1386.718750	-64.274849
1387.695312	-64.579453
1388.671875	-64.580833
1389.648438	-64.385689
1390.625000	-64.174240
1391.601562	-64.200615
1392.578125	-64.489769
1393.554688	-65.038559
1394.531250	-63.780876
1395.507812	-64.353111
1396.484375	-65.403664
1397.460938	-63.874969
1398.437500	-64.676613
1399.414062	-64.922112
1400.390625	-63.809708
1401.367188	-65.413658
1402.343750	-64.117989
1403.320312	-64.936455
1404.296875	-65.405403
1405.273438	-64.455185
1406.250000	-64.244347
1407.226562	-64.320168
1408.203125	-63.748230
1409.179688	-65.104973
1410.156250	-64.597839
1411.132812	-65.202995
1412.109375	-66.036491
1413.085938	-64.460609
1414.062500	-64.711510
1415.039062	-64.900635
1416.015625	-64.656334
1416.992188	-65.154076
1417.968750	-65.495598
1418.945312	-65.220482
1419.921875	-65.760544
1420.898438	-64.499611
1421.875000	-65.669533
1422.851562	-64.972343
1423.828125	-65.421860
1424.804688	-65.627968
1425.781250	-66.023262
1426.757812	-66.114998
1427.734375	-66.550964
1428.710938	-65.198059
1429.687500	-66.444405
1430.664062	-66.324127
1431.640625	-66.464462
1432.617188	-66.689201
1433.593750	-65.634476
1434.570312	-66.486465
1435.546875	-67.007690
1436.523438	-67.024406
1437.500000	-65.924286
1438.476562	-66.418846
1439.453125	-66.727577
1440.429688	-66.569252
1441.406250	-67.240776
1442.382812	-67.542671
1443.359375	-67.487259
1444.335938	-67.305893
1445.312500	-66.878052
1446.289062	-67.509026
1447.265625	-68.406914
1448.242188	-68.447159
1449.218750	-68.098938
1450.195312	-68.031517
1451.171875	-69.006454
1452.148438	-68.496635
1453.125000	-68.088478
1454.101562	-69.093857
1455.078125	-69.238586
1456.054688	-69.685593
1457.031250	-70.601349
1458.007812	-69.394501
1458.984375	-68.907227
1459.960938	-70.159592
1460.937500	-69.620720
1461.914062	-69.224518
1462.890625	-70.158165
1463.867188	-69.793907
1464.843750	-70.112862
1465.820312	-70.238358
1466.796875	-70.551956
1467.773438	-70.435349
1468.750000	-70.191711
1469.726562	-70.604767
1470.703125	-69.524750
1471.679688	-70.840401
1472.656250	-71.305000
1473.632812	-70.788994
1474.609375	-72.074806
1475.585938	-72.031601
1476.562500	-72.149788
1477.539062	-71.871147
1478.515625	-72.308998
1479.492188	-72.364548
1480.468750	-73.008781
1481.445312	-72.357422
1482.421875	-72.284721
1483.398438	-72.895790
1484.375000	-72.538345
1485.351562	-73.935341
1486.328125	-73.324638
1487.304688	-73.776733
1488.281250	-73.885872
1489.257812	-73.934471
1490.234375	-73.372520
1491.210938	-73.273033
1492.187500	-74.309616
1493.164062	-74.504517
1494.140625	-73.758247
1495.117188	-73.001724
1496.093750	-74.375153
1497.070312	-73.832726
1498.046875	-74.581047
1499.023438	-75.670372
1500.000000	-74.780960
1500.976562	-74.736725
1501.953125	-74.493286
1502.929688	-74.859283
1503.906250	-75.807388
1504.882812	-74.950394
1505.859375	-74.542839
1506.835938	-75.543526
1507.812500	-75.950287
1508.789062	-75.752281
1509.765625	-75.590225
1510.742188	-76.108154
1511.718750	-75.285576
1512.695312	-75.965546
1513.671875	-76.338379
1514.648438	-76.488571
1515.625000	-75.983261
1516.601562	-77.010139
1517.578125	-76.309944
1518.554688	-77.296371
1519.531250	-76.400528
1520.507812	-76.091858
1521.484375	-75.752121
1522.460938	-76.256897
1523.437500	-76.217056
1524.414062	-76.392975
1525.390625	-76.840988
1526.367188	-76.913963
1527.343750	-76.700104
1528.320312	-76.044464
1529.296875	-76.100830
1530.273438	-76.366806
1531.250000	-76.665443
1532.226562	-76.433212
1533.203125	-76.770325
1534.179688	-76.350479
1535.156250	-76.092972
1536.132812	-77.481926
1537.109375	-77.050354
1538.085938	-76.241554
1539.062500	-77.348289
1540.039062	-78.015762
1541.015625	-77.312492
1541.992188	-77.367210
1542.968750	-77.682205
1543.945312	-77.047333
1544.921875	-77.094734
1545.898438	-77.903763
1546.875000	-78.085350
1547.851562	-76.896255
1548.828125	-76.584808
1549.804688	-76.725052
1550.781250	-77.274788
1551.757812	-76.998329
1552.734375	-76.947891
1553.710938	-77.430557
1554.687500	-77.292091
1555.664062	-77.020309
1556.640625	-76.990280
1557.617188	-77.192360
1558.593750	-77.332977
1559.570312	-77.831657
1560.546875	-77.864235
1561.523438	-77.396408
1562.500000	-78.294968
1563.476562	-78.402985
1564.453125	-77.993279
1565.429688	-77.726768
1566.406250	-78.044342
1567.382812	-77.362083
1568.359375	-77.278671
1569.335938	-77.055237
1570.312500	-77.315453
1571.289062	-77.559914
1572.265625	-77.525116
1573.242188	-77.637794
1574.218750	-78.239594
1575.195312	-77.987350
1576.171875	-77.121414
1577.148438	-77.326599
1578.125000	-76.893890
1579.101562	-77.925964
1580.078125	-77.561279
1581.054688	-77.458687
1582.031250	-77.615067
1583.007812	-77.946617
1583.984375	-77.016212
1584.960938	-77.435249
1585.937500	-77.853645
1586.914062	-77.730095
1587.890625	-77.537788
1588.867188	-77.788490
1589.843750	-77.673653
1590.820312	-77.643333
1591.796875	-77.294426
1592.773438	-77.482040
1593.750000	-78.086014
1594.726562	-77.728996
1595.703125	-76.871933
1596.679688	-77.349571
1597.656250	-77.490814
1598.632812	-77.475784
1599.609375	-77.544945
1600.585938	-77.593346
1601.562500	-78.375389
1602.539062	-77.975502
1603.515625	-78.379654
1604.492188	-79.168686
1605.468750	-77.670776
1606.445312	-77.579773
1607.421875	-77.577187
1608.398438	-77.349098
1609.375000	-78.087799
1610.351562	-78.017433
1611.328125	-77.067841
1612.304688	-77.919167
1613.281250	-77.937859
1614.257812	-78.148468
1615.234375	-77.754997
1616.210938	-77.890373
1617.187500	-78.768219
1618.164062	-78.199310
1619.140625	-78.370361
1620.117188	-78.095688
1621.093750	-78.341103
1622.070312	-78.543808
1623.046875	-77.929634
1624.023438	-78.562134
1625.000000	-77.946167
1625.976562	-78.108559
1626.953125	-78.628609
1627.929688	-78.977280
1628.906250	-78.434555
1629.882812	-78.519020
1630.859375	-78.261604
1631.835938	-78.959366
1632.812500	-79.315155
1633.789062	-79.407722
1634.765625	-79.846497
1635.742188	-79.094559
1636.718750	-80.098648
1637.695312	-80.609047
1638.671875	-79.623665
1639.648438	-79.935059
1640.625000	-80.207710
1641.601562	-80.107414
1642.578125	-80.154823
1643.554688	-80.336227
1644.531250	-80.202866
1645.507812	-80.789398
1646.484375	-80.574417
1647.460938	-80.187431
1648.437500	-80.086121
1649.414062	-80.072845
1650.390625	-80.756271
1651.367188	-80.777779
1652.343750	-80.558937
1653.320312	-80.111786
1654.296875	-81.068695
1655.273438	-81.910507
1656.250000	-80.734985
1657.226562	-80.823158
1658.203125	-81.856834
1659.179688	-81.608398
1660.156250	-81.378349
1661.132812	-81.627777
1662.109375	-81.425621
1663.085938	-81.962799
1664.062500	-82.286804
1665.039062	-81.989685
1666.015625	-82.219467
1666.992188	-81.945335
1667.968750	-82.215683
1668.945312	-82.053383
1669.921875	-82.237061
1670.898438	-81.626167
1671.875000	-82.242706
1672.851562	-82.618813
1673.828125	-83.050034
1674.804688	-82.341805
1675.781250	-82.487885
1676.757812	-82.555862
1677.734375	-83.192299
1678.710938	-83.380264
1679.687500	-83.549881
1680.664062	-83.644623
1681.640625	-82.865982
1682.617188	-83.471252
1683.593750	-83.485649
1684.570312	-83.168076
1685.546875	-83.414131
1686.523438	-82.938446
1687.500000	-83.352852
1688.476562	-83.561172
1689.453125	-84.826530
1690.429688	-85.210602
1691.406250	-84.785797
1692.382812	-84.904060
1693.359375	-83.997437
1694.335938	-83.949516
1695.312500	-84.138885
1696.289062	-85.976135
1697.265625	-85.186417
1698.242188	-84.474014
1699.218750	-84.649956
1700.195312	-83.835701
1701.171875	-83.782249
1702.148438	-84.342239
1703.125000	-84.908455
1704.101562	-85.200027
1705.078125	-84.763977
1706.054688	-84.890587
1707.031250	-84.184967
1708.007812	-83.915901
1708.984375	-84.673340
1709.960938	-85.275620
1710.937500	-84.782913
1711.914062	-84.054840
1712.890625	-84.533081
1713.867188	-84.839287
1714.843750	-84.604164
1715.820312	-84.669075
1716.796875	-85.337990
1717.773438	-84.781960
1718.750000	-84.790176
1719.726562	-84.966797
1720.703125	-84.091545
1721.679688	-84.698128
1722.656250	-84.798203
1723.632812	-84.474098
1724.609375	-85.081398
1725.585938	-84.757530
1726.562500	-85.005135
1727.539062	-84.189064
1728.515625	-84.150558
1729.492188	-84.932663
1730.468750	-84.825150
1731.445312	-84.450188
1732.421875	-84.765778
1733.398438	-84.349045
1734.375000	-84.537735
1735.351562	-84.671516
1736.328125	-84.128593
1737.304688	-84.227737
1738.281250	-83.792763
1739.257812	-84.567848
1740.234375	-84.373314
1741.210938	-84.068932
1742.187500	-84.009544
1743.164062	-84.431183
1744.140625	-84.150101
1745.117188	-84.247490
1746.093750	-83.752945
1747.070312	-83.530960
1748.046875	-83.052170
1749.023438	-83.315094
1750.000000	-84.369530
1750.976562	-83.500793
1751.953125	-83.588638
1752.929688	-82.844193
1753.906250	-83.163612
1754.882812	-83.301651
1755.859375	-83.723007
1756.835938	-82.331642
1757.812500	-81.994240
1758.789062	-82.527336
1759.765625	-83.782684
1760.742188	-82.961639
1761.718750	-83.073425
1762.695312	-82.587883
1763.671875	-83.086060
1764.648438	-83.182938
1765.625000	-83.133354
1766.601562	-83.130791
1767.578125	-82.709114
1768.554688	-82.379105
1769.531250	-82.601463
1770.507812	-81.517479
1771.484375	-81.878128
1772.460938	-83.447342
1773.437500	-81.857437
1774.414062	-81.506149
1775.390625	-81.737976
1776.367188	-82.639938
1777.343750	-82.551010
1778.320312	-82.229088
1779.296875	-82.052803
1780.273438	-82.397957
1781.250000	-81.524033
1782.226562	-82.321701
1783.203125	-81.773399
1784.179688	-81.732552
1785.156250	-82.500626
1786.132812	-80.995934
1787.109375	-82.199936
1788.085938	-82.228363
1789.062500	-82.132431
1790.039062	-82.301491
1791.015625	-82.126534
1791.992188	-82.483963
1792.968750	-81.169968
1793.945312	-81.616531
1794.921875	-81.882355
1795.898438	-82.745628
1796.875000	-82.430023
1797.851562	-81.987465
1798.828125	-82.380623
1799.804688	-82.154442
1800.781250	-82.938667
1801.757812	-82.440521
1802.734375	-82.011543
1803.710938	-82.446388
1804.687500	-82.969246
1805.664062	-83.059044
1806.640625	-82.654907
1807.617188	-82.460197
1808.593750	-82.708061
1809.570312	-81.688408
1810.546875	-82.702957
1811.523438	-82.393951
1812.500000	-83.027054
1813.476562	-82.866844
1814.453125	-83.546593
1815.429688	-82.816803
1816.406250	-82.541695
1817.382812	-83.211365
1818.359375	-83.001579
1819.335938	-83.500481
1820.312500	-82.921196
1821.289062	-83.035370
1822.265625	-83.823936
1823.242188	-83.106262
1824.218750	-83.167931
1825.195312	-83.955421
1826.171875	-83.459755
1827.148438	-83.603363
1828.125000	-84.043251
1829.101562	-84.103058
1830.078125	-84.002968
1831.054688	-83.851799
1832.031250	-84.276955
1833.007812	-83.823494
1833.984375	-84.671661
1834.960938	-83.557106
1835.937500	-84.143730
1836.914062	-84.688118
1837.890625	-84.829124
1838.867188	-84.660927
1839.843750	-85.479088
1840.820312	-84.140106
1841.796875	-85.271729
1842.773438	-85.032127
1843.750000	-84.385857
1844.726562	-84.969688
1845.703125	-84.572540
1846.679688	-85.148155
1847.656250	-84.669724
1848.632812	-84.366631
1849.609375	-84.435982
1850.585938	-85.056351
1851.562500	-85.263824
1852.539062	-85.058342
1853.515625	-84.627609
1854.492188	-84.259094
1855.468750	-84.707138
1856.445312	-84.999840
1857.421875	-85.104713
1858.398438	-84.957634
1859.375000	-85.242149
1860.351562	-84.260429
1861.328125	-84.490913
1862.304688	-84.780899
1863.281250	-84.716942
1864.257812	-84.522331
1865.234375	-85.437340
1866.210938	-85.024452
1867.187500	-84.634338
1868.164062	-84.634247
1869.140625	-85.283562
1870.117188	-85.140282
1871.093750	-85.669151
1872.070312	-84.846069
1873.046875	-86.098152
1874.023438	-85.062279
1875.000000	-85.215897
1875.976562	-85.497040
1876.953125	-85.667145
1877.929688	-85.395882
1878.906250	-85.167076
1879.882812	-84.918877
1880.859375	-84.852249
1881.835938	-84.325691
1882.812500	-85.296257
1883.789062	-84.648621
1884.765625	-84.995544
1885.742188	-84.114189
1886.718750	-84.658043
1887.695312	-85.060867
1888.671875	-85.428467
1889.648438	-85.465416
1890.625000	-85.284645
1891.601562	-84.710869
1892.578125	-84.816986
1893.554688	-84.575462
1894.531250	-84.725410
1895.507812	-85.142029
1896.484375	-84.521713
1897.460938	-84.666809
1898.437500	-83.381134
1899.414062	-84.759087
1900.390625	-83.571869
1901.367188	-84.309326
1902.343750	-84.751747
1903.320312	-85.189903
1904.296875	-83.832848
1905.273438	-84.050941
1906.250000	-82.962090
1907.226562	-83.510864
1908.203125	-83.346001
1909.179688	-83.209717
1910.156250	-83.631897
1911.132812	-83.258316
1912.109375	-83.335136
1913.085938	-83.523369
1914.062500	-83.536728
1915.039062	-82.826759
1916.015625	-82.662903
1916.992188	-83.019569
1917.968750	-83.108414
1918.945312	-82.629829
1919.921875	-82.766846
1920.898438	-82.637009
1921.875000	-82.400597
1922.851562	-83.039711
1923.828125	-82.493904
1924.804688	-81.960579
1925.781250	-82.026672
1926.757812	-81.967545
1927.734375	-81.533287
1928.710938	-81.850792
1929.687500	-81.356117
1930.664062	-81.993233
1931.640625	-81.456314
1932.617188	-80.795403
1933.593750	-81.002907
1934.570312	-82.321785
1935.546875	-80.680420
1936.523438	-81.427765
1937.500000	-81.088646
1938.476562	-80.557510
1939.453125	-81.009651
1940.429688	-80.686699
1941.406250	-80.750214
1942.382812	-80.034363
1943.359375	-80.388962
1944.335938	-80.531662
1945.312500	-80.185417
1946.289062	-79.829498
1947.265625	-79.989212
1948.242188	-80.781311
1949.218750	-80.367859
1950.195312	-80.528145
1951.171875	-79.655716
1952.148438	-79.866280
1953.125000	-80.060692
1954.101562	-80.152992
1955.078125	-79.626381
1956.054688	-78.980896
1957.031250	-79.555351
1958.007812	-79.133850
1958.984375	-78.749924
1959.960938	-78.317261
1960.937500	-78.606445
1961.914062	-78.880165
1962.890625	-79.707878
1963.867188	-79.217697
1964.843750	-78.712753
1965.820312	-79.275177
1966.796875	-79.873314
1967.773438	-79.012581
1968.750000	-79.568123
1969.726562	-79.480019
1970.703125	-79.694778
1971.679688	-79.446342
1972.656250	-79.555130
1973.632812	-79.429039
1974.609375	-79.355026
1975.585938	-80.336784
1976.562500	-79.156029
1977.539062	-80.188385
1978.515625	-79.688988
1979.492188	-79.807594
1980.468750	-79.568275
1981.445312	-80.323227
1982.421875	-80.312881
1983.398438	-79.964714
1984.375000	-79.449265
1985.351562	-80.173492
1986.328125	-80.847237
1987.304688	-79.552956
1988.281250	-80.144630
1989.257812	-80.306442
1990.234375	-80.021431
1991.210938	-81.022789
1992.187500	-80.248833
1993.164062	-81.119286
1994.140625	-80.603172
1995.117188	-80.257523
1996.093750	-81.044868
1997.070312	-80.623489
1998.046875	-81.261063
1999.023438	-80.526192
2000.000000	-80.935608
2000.976562	-80.641380
2001.953125	-80.746964
2002.929688	-81.759232
2003.906250	-80.621834
2004.882812	-81.221489
2005.859375	-81.183937
2006.835938	-81.498444
2007.812500	-80.677032
2008.789062	-81.225861
2009.765625	-81.554527
2010.742188	-82.029305
2011.718750	-81.732170
2012.695312	-81.478081
2013.671875	-81.149902
2014.648438	-81.930237
2015.625000	-82.120033
2016.601562	-82.382355
2017.578125	-82.191711
2018.554688	-81.759872
2019.531250	-81.890060
2020.507812	-81.882248
2021.484375	-81.382217
2022.460938	-80.758873
2023.437500	-80.914757
2024.414062	-81.900124
2025.390625	-82.030457
2026.367188	-81.444389
2027.343750	-82.103432
2028.320312	-82.053993
2029.296875	-81.952995
2030.273438	-82.597610
2031.250000	-81.969070
2032.226562	-82.056747
2033.203125	-81.600006
2034.179688	-82.273529
2035.156250	-81.856544
2036.132812	-82.496628
2037.109375	-81.220375
2038.085938	-81.715012
2039.062500	-81.463493
2040.039062	-82.070374
2041.015625	-82.699326
2041.992188	-82.082176
2042.968750	-81.770721
2043.945312	-81.856758
2044.921875	-81.823891
2045.898438	-81.970711
2046.875000	-82.662521
2047.851562	-81.462173
2048.828125	-82.481773
2049.804688	-81.836563
2050.781250	-82.880974
2051.757812	-82.384254
2052.734375	-82.317825
2053.710938	-81.747810
2054.687500	-81.129814
2055.664062	-82.865730
2056.640625	-83.021828
2057.617188	-82.723320
2058.593750	-81.490829
2059.570312	-81.629822
2060.546875	-82.082344
2061.523438	-82.152069
2062.500000	-81.555542
2063.476562	-81.419174
2064.453125	-80.506302
2065.429688	-81.269081
2066.406250	-81.295898
2067.382812	-81.086815
2068.359375	-81.474190
2069.335938	-80.980797
2070.312500	-81.463814
2071.289062	-82.788826
2072.265625	-82.113342
2073.242188	-81.616768
2074.218750	-81.208580
2075.195312	-81.781662
2076.171875	-82.361801
2077.148438	-82.639809
2078.125000	-83.714859
2079.101562	-82.630516
2080.078125	-83.286209
2081.054688	-82.960419
2082.031250	-82.564499
2083.007812	-82.643097
2083.984375	-82.553238
2084.960938	-83.687653
2085.937500	-82.413727
2086.914062	-81.752777
2087.890625	-82.156425
2088.867188	-82.451927
2089.843750	-81.618477
2090.820312	-80.227203
2091.796875	-80.055550
2092.773438	-79.177246
2093.750000	-79.147942
2094.726562	-79.486771
2095.703125	-78.946815
2096.679688	-78.964211
2097.656250	-77.704926
2098.632812	-77.929955
2099.609375	-77.390770
2100.585938	-75.903893
2101.562500	-76.678047
2102.539062	-77.456696
2103.515625	-77.297371
2104.492188	-76.508827
2105.468750	-76.511650
2106.445312	-75.877701
2107.421875	-75.665733
2108.398438	-75.880920
2109.375000	-75.096985
2110.351562	-74.317642
2111.328125	-75.055092
2112.304688	-74.696121
2113.281250	-74.071945
2114.257812	-73.886467
2115.234375	-74.467957
2116.210938	-74.262581
2117.187500	-73.176979
2118.164062	-74.418182
2119.140625	-74.318268
2120.117188	-73.554253
2121.093750	-73.325783
2122.070312	-74.084549
2123.046875	-74.239517
2124.023438	-73.234100
2125.000000	-73.798302
2125.976562	-73.949051
2126.953125	-74.134354
2127.929688	-72.972771
2128.906250	-73.082138
2129.882812	-73.135849
2130.859375	-73.709724
2131.835938	-72.727989
2132.812500	-73.386459
2133.789062	-73.317825
2134.765625	-74.645386
2135.742188	-74.171738
2136.718750	-74.970734
2137.695312	-74.252022
2138.671875	-74.639854
2139.648438	-74.232697
2140.625000	-73.961418
2141.601562	-74.750763
2142.578125	-74.269936
2143.554688	-73.671906
2144.531250	-75.136086
2145.507812	-74.549255
2146.484375	-74.962944
2147.460938	-74.833389
2148.437500	-75.946747
2149.414062	-75.455276
2150.390625	-75.680061
2151.367188	-75.291664
2152.343750	-75.764801
2153.320312	-75.399803
2154.296875	-75.634781
2155.273438	-75.411690
2156.250000	-76.174965
2157.226562	-75.234535
2158.203125	-76.274612
2159.179688	-76.093124
2160.156250	-76.526398
2161.132812	-76.726440
2162.109375	-76.448593
2163.085938	-77.619789
2164.062500	-77.086563
2165.039062	-77.302887
2166.015625	-77.503349
2166.992188	-77.000435
2167.968750	-76.925003
2168.945312	-77.594688
2169.921875	-78.394135
2170.898438	-77.833115
2171.875000	-77.449501
2172.851562	-78.460930
2173.828125	-78.840012
2174.804688	-79.826599
2175.781250	-79.278206
2176.757812	-79.482292
2177.734375	-80.257248
2178.710938	-80.551285
2179.687500	-80.520866
2180.664062	-80.630829
2181.640625	-81.707092
2182.617188	-81.651558
2183.593750	-82.083115
2184.570312	-81.714584
2185.546875	-83.144264
2186.523438	-84.389572
2187.500000	-82.451668
2188.476562	-83.752937
2189.453125	-84.092529
2190.429688	-84.336868
2191.406250	-83.828285
2192.382812	-84.185791
2193.359375	-85.724945
2194.335938	-85.594238
2195.312500	-86.424889
2196.289062	-86.352242
2197.265625	-85.851852
2198.242188	-86.661636
2199.218750	-86.632446
2200.195312	-86.303169
2201.171875	-85.467903
2202.148438	-86.361664
2203.125000	-85.262886
2204.101562	-85.872818
2205.078125	-85.366302
2206.054688	-84.662170
2207.031250	-83.568985
2208.007812	-84.576080
2208.984375	-84.786125
2209.960938	-83.463669
2210.937500	-83.312645
2211.914062	-83.809494
2212.890625	-82.694016
2213.867188	-82.143227
2214.843750	-81.511276
2215.820312	-81.281616
2216.796875	-80.650192
2217.773438	-80.535599
2218.750000	-80.524307
2219.726562	-81.098587
2220.703125	-79.997879
2221.679688	-80.384483
2222.656250	-79.112343
2223.632812	-79.131210
2224.609375	-79.502419
2225.585938	-78.608368
2226.562500	-78.133202
2227.539062	-78.140251
2228.515625	-78.367531
2229.492188	-78.083427
2230.468750	-77.379845
2231.445312	-75.845207
2232.421875	-77.257614
2233.398438	-76.948654
2234.375000	-77.046005
2235.351562	-75.813690
2236.328125	-76.383553
2237.304688	-75.918755
2238.281250	-76.022675
2239.257812	-75.266281
2240.234375	-75.409378
2241.210938	-74.374718
2242.187500	-74.552399
2243.164062	-74.957695
2244.140625	-75.082619
2245.117188	-73.855583
2246.093750	-75.160530
2247.070312	-75.074234
2248.046875	-74.748985
2249.023438	-73.361305
2250.000000	-74.092857
2250.976562	-73.930138
2251.953125	-73.410934
2252.929688	-72.421234
2253.906250	-73.491074
2254.882812	-73.319000
2255.859375	-73.298790
2256.835938	-72.382614
2257.812500	-72.746979
2258.789062	-72.525070
2259.765625	-72.260132
2260.742188	-73.048889
2261.718750	-72.657272
2262.695312	-72.070862
2263.671875	-72.175072
2264.648438	-71.767273
2265.625000	-71.816849
2266.601562	-72.591103
2267.578125	-72.167549
2268.554688	-72.004868
2269.531250	-72.181374
2270.507812	-73.167252
2271.484375	-72.361435
2272.460938	-72.310669
2273.437500	-72.214317
2274.414062	-71.339897
2275.390625	-72.521454
2276.367188	-72.146324
2277.343750	-72.143639
2278.320312	-72.491669
2279.296875	-72.116997
2280.273438	-72.717163
2281.250000	-72.480530
2282.226562	-72.266228
2283.203125	-71.647789
2284.179688	-72.047356
2285.156250	-72.998154
2286.132812	-73.252922
2287.109375	-71.906052
2288.085938	-72.209167
2289.062500	-72.698311
2290.039062	-72.496117
2291.015625	-71.751076
2291.992188	-72.355927
2292.968750	-72.705780
2293.945312	-71.803986
2294.921875	-71.881691
2295.898438	-72.766327
2296.875000	-72.380272
2297.851562	-72.750877
2298.828125	-72.708244
2299.804688	-72.993980
2300.781250	-73.493149
2301.757812	-72.171707
2302.734375	-73.078415
2303.710938	-72.198334
2304.687500	-72.409401
2305.664062	-72.537621
2306.640625	-73.574669
2307.617188	-73.018379
2308.593750	-72.844933
2309.570312	-73.097740
2310.546875	-73.150597
2311.523438	-72.905533
2312.500000	-73.669563
2313.476562	-72.678879
2314.453125	-73.251175
2315.429688	-73.092117
2316.406250	-73.551552
2317.382812	-73.021210
2318.359375	-73.125816
2319.335938	-72.714622
2320.312500	-72.450142
2321.289062	-73.777725
2322.265625	-73.669952
2323.242188	-73.507057
2324.218750	-73.506844
2325.195312	-73.939117
2326.171875	-74.277908
2327.148438	-72.624657
2328.125000	-73.176437
2329.101562	-75.045982
2330.078125	-74.499565
2331.054688	-73.601143
2332.031250	-74.105156
2333.007812	-73.192810
2333.984375	-74.383926
2334.960938	-74.215118
2335.937500	-74.453957
2336.914062	-74.686386
2337.890625	-74.717827
2338.867188	-74.867111
2339.843750	-73.794220
2340.820312	-75.076653
2341.796875	-75.329567
2342.773438	-73.597534
2343.750000	-74.309967
2344.726562	-74.861183
2345.703125	-74.932777
2346.679688	-75.103317
2347.656250	-75.026169
2348.632812	-75.136597
2349.609375	-75.519745
2350.585938	-76.059914
2351.562500	-75.687897
2352.539062	-75.346512
2353.515625	-75.782578
2354.492188	-75.419228
2355.468750	-77.411186
2356.445312	-75.870178
2357.421875	-76.100182
2358.398438	-76.248825
2359.375000	-77.170502
2360.351562	-76.804596
2361.328125	-76.147293
2362.304688	-76.881668
2363.281250	-77.119331
2364.257812	-76.995689
2365.234375	-76.713425
2366.210938	-77.277916
2367.187500	-77.610512
2368.164062	-77.639839
2369.140625	-77.577652
2370.117188	-77.684326
2371.093750	-78.070595
2372.070312	-78.400177
2373.046875	-78.980438
2374.023438	-78.649246
2375.000000	-79.518188
2375.976562	-79.352325
2376.953125	-79.322456
2377.929688	-80.375633
2378.906250	-80.885185
2379.882812	-79.800819
2380.859375	-81.584183
2381.835938	-80.861168
2382.812500	-80.161575
2383.789062	-80.988564
2384.765625	-80.833916
2385.742188	-80.766052
2386.718750	-80.609566
2387.695312	-82.027161
2388.671875	-82.126289
2389.648438	-81.779678
2390.625000	-81.704582
2391.601562	-81.999763
2392.578125	-82.373230
2393.554688	-82.846413
2394.531250	-82.083656
2395.507812	-83.665695
2396.484375	-83.794991
2397.460938	-83.535271
2398.437500	-84.597595
2399.414062	-84.612175
2400.390625	-85.196571
2401.367188	-84.327354
2402.343750	-84.743202
2403.320312	-83.781464
2404.296875	-84.667915
2405.273438	-85.086884
2406.250000	-85.929161
2407.226562	-86.017281
2408.203125	-85.380280
2409.179688	-85.695755
2410.156250	-86.416183
2411.132812	-86.561760
2412.109375	-85.961906
2413.085938	-87.381744
2414.062500	-86.577942
2415.039062	-87.452011
2416.015625	-87.635498
2416.992188	-87.509445
2417.968750	-87.566002
2418.945312	-87.562599
2419.921875	-87.479187
2420.898438	-88.191544
2421.875000	-87.698715
2422.851562	-87.812836
2423.828125	-88.281250
2424.804688	-89.053268
2425.781250	-88.423233
2426.757812	-88.288254
2427.734375	-88.325287
2428.710938	-88.729599
2429.687500	-88.529381
2430.664062	-88.629395
2431.640625	-89.628700
2432.617188	-87.923637
2433.593750	-88.895714
2434.570312	-88.187660
2435.546875	-88.833839
2436.523438	-88.763214
2437.500000	-88.849869
2438.476562	-87.583305
2439.453125	-88.345078
2440.429688	-87.993866
2441.406250	-88.629509
2442.382812	-88.112534
2443.359375	-87.709297
2444.335938	-88.102859
2445.312500	-88.414948
2446.289062	-87.629227
2447.265625	-88.274002
2448.242188	-87.478569
2449.218750	-86.745636
2450.195312	-87.149170
2451.171875	-87.203026
2452.148438	-86.318436
2453.125000	-86.688454
2454.101562	-86.099586
2455.078125	-86.986603
2456.054688	-86.064682
2457.031250	-85.879341
2458.007812	-86.173523
2458.984375	-85.302856
2459.960938	-84.742035
2460.937500	-84.770477
2461.914062	-84.893661
2462.890625	-85.133690
2463.867188	-84.952690
2464.843750	-84.783142
2465.820312	-85.377609
2466.796875	-84.084602
2467.773438	-84.461693
2468.750000	-83.571487
2469.726562	-84.333481
2470.703125	-83.914215
2471.679688	-83.904510
2472.656250	-83.054398
2473.632812	-83.145805
2474.609375	-82.920822
2475.585938	-82.666420
2476.562500	-83.242302
2477.539062	-82.416420
2478.515625	-82.438568
2479.492188	-82.097008
2480.468750	-81.946754
2481.445312	-83.144463
2482.421875	-81.905579
2483.398438	-81.506096
2484.375000	-82.601578
2485.351562	-81.957024
2486.328125	-81.505280
2487.304688	-81.673599
2488.281250	-82.432320
2489.257812	-82.393250
2490.234375	-82.026772
2491.210938	-81.663986
2492.187500	-81.580673
2493.164062	-81.252625
2494.140625	-81.770935
2495.117188	-81.251518
2496.093750	-81.489189
2497.070312	-81.328461
2498.046875	-81.590729
2499.023438	-80.822327
2500.000000	-80.573898
2500.976562	-80.921791
2501.953125	-81.685036
2502.929688	-80.920784
2503.906250	-81.164482
2504.882812	-80.436913
2505.859375	-81.195396
2506.835938	-81.910866
2507.812500	-82.276367
2508.789062	-80.947334
2509.765625	-81.159485
2510.742188	-81.053253
2511.718750	-81.365417
2512.695312	-81.432365
2513.671875	-81.597000
2514.648438	-81.114502
2515.625000	-82.103737
2516.601562	-82.050148
2517.578125	-82.253296
2518.554688	-81.952614
2519.531250	-82.266106
2520.507812	-82.054047
2521.484375	-81.718529
2522.460938	-82.749031
2523.437500	-83.254341
2524.414062	-82.536011
2525.390625	-82.586395
2526.367188	-82.655663
2527.343750	-82.743835
2528.320312	-81.694870
2529.296875	-82.641098
2530.273438	-83.877449
2531.250000	-82.823532
2532.226562	-82.623360
2533.203125	-82.309753
2534.179688	-82.414909
2535.156250	-82.603470
2536.132812	-83.406670
2537.109375	-82.211479
2538.085938	-82.373306
2539.062500	-83.572479
2540.039062	-82.643654
2541.015625	-83.018738
2541.992188	-82.860817
2542.968750	-83.848236
2543.945312	-84.024300
2544.921875	-84.269089
2545.898438	-84.083755
2546.875000	-83.451355
2547.851562	-83.485275
2548.828125	-83.970848
2549.804688	-83.305191
2550.781250	-83.308586
2551.757812	-82.714981
2552.734375	-84.267799
2553.710938	-82.898300
2554.687500	-82.961899
2555.664062	-83.218918
2556.640625	-83.823196
2557.617188	-83.368378
2558.593750	-84.069778
2559.570312	-83.550049
2560.546875	-82.185844
2561.523438	-83.282227
2562.500000	-82.952904
2563.476562	-83.432549
2564.453125	-82.556076
2565.429688	-81.631721
2566.406250	-82.927437
2567.382812	-82.006905
2568.359375	-82.142654
2569.335938	-82.074608
2570.312500	-82.626396
2571.289062	-81.927696
2572.265625	-82.390274
2573.242188	-81.008141
2574.218750	-81.253082
2575.195312	-81.429237
2576.171875	-80.772774
2577.148438	-81.212761
2578.125000	-80.941772
2579.101562	-81.799545
2580.078125	-81.244179
2581.054688	-81.019463
2582.031250	-80.943237
2583.007812	-80.656235
2583.984375	-80.437988
2584.960938	-79.656250
2585.937500	-80.426521
2586.914062	-80.114624
2587.890625	-80.015480
2588.867188	-79.842995
2589.843750	-79.841980
2590.820312	-80.068047
2591.796875	-79.853432
2592.773438	-79.283180
2593.750000	-78.663284
2594.726562	-79.367653
2595.703125	-79.509766
2596.679688	-79.243256
2597.656250	-79.051178
2598.632812	-78.731117
2599.609375	-79.362640
2600.585938	-78.825966
2601.562500	-78.294838
2602.539062	-78.437126
2603.515625	-78.524040
2604.492188	-77.889832
2605.468750	-78.251793
2606.445312	-78.190826
2607.421875	-77.379074
2608.398438	-77.918304
2609.375000	-77.791084
2610.351562	-78.507133
2611.328125	-78.416786
2612.304688	-78.139359
2613.281250	-77.731285
2614.257812	-77.527679
2615.234375	-77.735191
2616.210938	-77.541901
2617.187500	-77.084335
2618.164062	-77.679939
2619.140625	-77.531532
2620.117188	-77.554321
2621.093750	-77.443634
2622.070312	-77.085327
2623.046875	-78.138451
2624.023438	-77.124939
2625.000000	-77.056160
2625.976562	-77.946892
2626.953125	-78.012383
2627.929688	-76.990150
2628.906250	-77.082077
2629.882812	-76.784538
2630.859375	-77.820633
2631.835938	-77.247002
2632.812500	-76.392654
2633.789062	-77.222397
2634.765625	-76.050087
2635.742188	-76.294106
2636.718750	-76.407791
2637.695312	-77.670914
2638.671875	-77.797211
2639.648438	-76.143257
2640.625000	-76.673103
2641.601562	-77.512589
2642.578125	-76.585304
2643.554688	-77.161491
2644.531250	-76.707062
2645.507812	-76.918365
2646.484375	-77.566826
2647.460938	-76.961159
2648.437500	-76.385033
2649.414062	-76.863876
2650.390625	-77.188644
2651.367188	-76.158829
2652.343750	-76.667221
2653.320312	-76.506516
2654.296875	-77.050163
2655.273438	-76.791565
2656.250000	-76.042023
2657.226562	-76.193047
2658.203125	-77.183899
2659.179688	-76.554245
2660.156250	-76.544792
2661.132812	-76.537857
2662.109375	-77.876236
2663.085938	-77.482162
2664.062500	-76.562515
2665.039062	-76.533157
2666.015625	-77.595116
2666.992188	-77.552368
2667.968750	-77.080826
2668.945312	-77.340439
2669.921875	-77.131638
2670.898438	-77.274544
2671.875000	-76.867531
2672.851562	-77.749580
2673.828125	-76.958755
2674.804688	-77.034233
2675.781250	-76.629250
2676.757812	-78.203972
2677.734375	-77.527573
2678.710938	-77.010490
2679.687500	-77.329544
2680.664062	-77.271370
2681.640625	-77.652557
2682.617188	-78.182869
2683.593750	-77.774918
2684.570312	-77.573990
2685.546875	-77.664932
2686.523438	-78.097580
2687.500000	-77.712425
2688.476562	-77.339600
2689.453125	-77.716644
2690.429688	-77.548981
2691.406250	-77.902969
2692.382812	-77.405479
2693.359375	-78.171936
2694.335938	-77.905777
2695.312500	-78.447235
2696.289062	-78.382721
2697.265625	-77.906082
2698.242188	-77.565933
2699.218750	-77.878166
2700.195312	-78.361542
2701.171875	-78.985313
2702.148438	-78.567879
2703.125000	-78.448044
2704.101562	-78.320908
2705.078125	-78.470245
2706.054688	-79.018860
2707.031250	-78.442123
2708.007812	-78.871346
2708.984375	-77.688988
2709.960938	-77.941795
2710.937500	-78.490524
2711.914062	-77.372398
2712.890625	-77.570633
2713.867188	-77.769623
2714.843750	-77.923454
2715.820312	-78.505386
2716.796875	-77.840034
2717.773438	-78.530403
2718.750000	-78.800789
2719.726562	-78.590393
2720.703125	-78.611130
2721.679688	-78.343742
2722.656250	-77.947121
2723.632812	-78.074402
2724.609375	-78.398743
2725.585938	-78.491920
2726.562500	-78.478951
2727.539062	-78.553818
2728.515625	-79.018311
2729.492188	-78.856720
2730.468750	-79.338348
2731.445312	-78.998405
2732.421875	-78.627312
2733.398438	-78.540550
2734.375000	-78.516212
2735.351562	-78.510391
2736.328125	-78.579590
2737.304688	-78.147026
2738.281250	-78.489708
2739.257812	-78.414017
2740.234375	-79.106125
2741.210938	-78.190247
2742.187500	-78.098282
2743.164062	-78.819977
2744.140625	-79.358032
2745.117188	-78.861885
2746.093750	-78.112190
2747.070312	-78.371368
2748.046875	-78.841209
2749.023438	-79.105286
2750.000000	-78.490532
2750.976562	-78.656479
2751.953125	-78.590202
2752.929688	-79.068756
2753.906250	-78.392799
2754.882812	-78.835480
2755.859375	-78.670593
2756.835938	-78.885414
2757.812500	-79.184326
2758.789062	-78.668968
2759.765625	-78.441216
2760.742188	-79.021614
2761.718750	-78.970345
2762.695312	-78.552467
2763.671875	-78.418900
2764.648438	-78.473564
2765.625000	-79.516319
2766.601562	-78.704628
2767.578125	-79.133064
2768.554688	-78.672035
2769.531250	-78.195457
2770.507812	-78.841797
2771.484375	-78.948158
2772.460938	-78.349655
2773.437500	-78.116470
2774.414062	-79.345566
2775.390625	-78.124634
2776.367188	-79.145836
2777.343750	-78.994431
2778.320312	-78.645584
2779.296875	-78.481712
2780.273438	-77.833069
2781.250000	-78.292038
2782.226562	-78.122215
2783.203125	-78.335281
2784.179688	-78.055656
2785.156250	-77.568047
2786.132812	-77.907204
2787.109375	-78.450653
2788.085938	-77.811455
2789.062500	-78.099335
2790.039062	-77.817955
2791.015625	-78.414192
2791.992188	-77.972794
2792.968750	-77.896233
2793.945312	-77.198738
2794.921875	-78.682243
2795.898438	-77.931107
2796.875000	-77.530518
2797.851562	-77.503822
2798.828125	-77.846222
2799.804688	-77.980705
2800.781250	-78.605522
2801.757812	-78.204178
2802.734375	-78.305252
2803.710938	-78.136055
2804.687500	-77.681419
2805.664062	-78.214867
2806.640625	-78.132233
2807.617188	-77.583115
2808.593750	-76.954201
2809.570312	-77.385803
2810.546875	-77.303078
2811.523438	-77.919121
2812.500000	-77.078499
2813.476562	-77.879074
2814.453125	-77.526680
2815.429688	-77.453194
2816.406250	-77.804291
2817.382812	-77.697113
2818.359375	-77.477898
2819.335938	-77.472084
2820.312500	-77.176071
2821.289062	-77.123268
2822.265625	-78.015594
2823.242188	-77.771042
2824.218750	-77.336235
2825.195312	-77.893265
2826.171875	-77.187096
2827.148438	-77.676170
2828.125000	-77.589027
2829.101562	-77.597206
2830.078125	-78.489159
2831.054688	-77.158379
2832.031250	-77.918510
2833.007812	-78.817017
2833.984375	-77.565781
2834.960938	-78.161163
2835.937500	-77.760063
2836.914062	-77.005463
2837.890625	-77.063629
2838.867188	-76.912849
2839.843750	-77.711914
2840.820312	-77.934685
2841.796875	-77.261726
2842.773438	-77.968346
2843.750000	-77.962372
2844.726562	-78.253845
2845.703125	-77.484207
2846.679688	-77.385422
2847.656250	-78.353653
2848.632812	-78.233780
2849.609375	-78.184334
2850.585938	-78.508240
2851.562500	-78.027023
2852.539062	-78.405762
2853.515625	-77.673332
2854.492188	-78.333519
2855.468750	-77.726814
2856.445312	-78.199577
2857.421875	-77.948807
2858.398438	-77.510551
2859.375000	-77.506737
2860.351562	-77.838264
2861.328125	-78.016739
2862.304688	-78.447304
2863.281250	-78.716972
2864.257812	-79.047852
2865.234375	-78.562515
2866.210938	-78.615440
2867.187500	-78.768097
2868.164062	-78.537788
2869.140625	-78.240707
2870.117188	-79.393959
2871.093750	-79.820717
2872.070312	-78.626801
2873.046875	-78.919930
2874.023438	-78.761078
2875.000000	-78.446976
2875.976562	-78.267677
2876.953125	-79.644066
2877.929688	-78.851669
2878.906250	-78.328926
2879.882812	-79.126869
2880.859375	-78.639549
2881.835938	-78.381805
2882.812500	-78.512405
2883.789062	-78.632484
2884.765625	-78.870285
2885.742188	-79.426964
2886.718750	-79.480804
2887.695312	-79.218475
2888.671875	-78.817657
2889.648438	-79.297829
2890.625000	-79.523071
2891.601562	-79.329529
2892.578125	-78.309761
2893.554688	-79.390526
2894.531250	-79.274788
2895.507812	-78.667702
2896.484375	-78.145386
2897.460938	-79.682533
2898.437500	-78.773689
2899.414062	-78.859840
2900.390625	-78.976837
2901.367188	-79.910362
2902.343750	-78.712059
2903.320312	-78.894142
2904.296875	-79.036285
2905.273438	-78.882584
2906.250000	-78.947777
2907.226562	-79.221123
2908.203125	-78.914047
2909.179688	-79.746986
2910.156250	-79.439957
2911.132812	-79.343941
2912.109375	-79.475029
2913.085938	-78.552788
2914.062500	-78.767509
2915.039062	-79.056076
2916.015625	-79.187233
2916.992188	-78.915405
2917.968750	-79.124420
2918.945312	-79.180771
2919.921875	-79.173019
2920.898438	-79.457848
2921.875000	-78.279686
2922.851562	-78.217125
2923.828125	-79.013084
2924.804688	-78.857681
2925.781250	-79.158752
2926.757812	-78.980446
2927.734375	-79.117348
2928.710938	-78.782059
2929.687500	-78.726608
2930.664062	-78.665588
2931.640625	-79.146988
2932.617188	-78.945900
2933.593750	-78.363159
2934.570312	-79.070808
2935.546875	-78.692215
2936.523438	-78.695747
2937.500000	-78.821869
2938.476562	-79.007690
2939.453125	-78.752640
2940.429688	-78.979530
2941.406250	-78.356636
2942.382812	-79.364494
2943.359375	-79.641647
2944.335938	-79.697319
2945.312500	-79.360291
2946.289062	-79.424950
2947.265625	-79.923759
2948.242188	-79.845032
2949.218750	-80.309189
2950.195312	-79.765060
2951.171875	-79.653793
2952.148438	-79.244293
2953.125000	-79.338768
2954.101562	-79.321892
2955.078125	-79.383377
2956.054688	-80.247124
2957.031250	-80.506790
2958.007812	-79.361771
2958.984375	-80.529434
2959.960938	-80.381348
2960.937500	-79.819870
2961.914062	-80.238029
2962.890625	-80.271271
2963.867188	-80.278160
2964.843750	-80.957245
2965.820312	-81.132195
2966.796875	-80.586754
2967.773438	-80.946983
2968.750000	-80.250053
2969.726562	-80.930969
2970.703125	-81.064346
2971.679688	-81.150505
2972.656250	-80.934441
2973.632812	-81.667061
2974.609375	-81.425812
2975.585938	-81.467743
2976.562500	-81.453300
2977.539062	-81.758827
2978.515625	-81.888641
2979.492188	-81.150795
2980.468750	-81.002144
2981.445312	-82.364235
2982.421875	-82.156006
2983.398438	-81.835999
2984.375000	-82.641495
2985.351562	-82.899406
2986.328125	-82.402145
2987.304688	-82.207756
2988.281250	-81.636238
2989.257812	-82.747116
2990.234375	-82.501648
2991.210938	-82.039520
2992.187500	-82.410965
2993.164062	-82.598679
2994.140625	-82.204002
2995.117188	-82.492104
2996.093750	-82.730362
2997.070312	-82.908722
2998.046875	-82.956802
2999.023438	-82.639206
3000.000000	-82.707222
3000.976562	-82.979065
3001.953125	-82.337524
3002.929688	-82.677414
3003.906250	-82.085327
3004.882812	-83.030792
3005.859375	-82.255692
3006.835938	-81.682358
3007.812500	-83.063225
3008.789062	-82.350304
3009.765625	-81.945374
3010.742188	-82.067177
3011.718750	-81.628647
3012.695312	-81.864807
3013.671875	-82.141403
3014.648438	-81.646500
3015.625000	-81.480675
3016.601562	-81.960732
3017.578125	-81.872154
3018.554688	-81.920708
3019.531250	-81.449722
3020.507812	-81.627869
3021.484375	-81.920807
3022.460938	-80.858192
3023.437500	-81.250435
3024.414062	-81.795761
3025.390625	-81.527115
3026.367188	-80.894119
3027.343750	-80.920952
3028.320312	-81.334900
3029.296875	-81.421158
3030.273438	-80.690376
3031.250000	-81.033264
3032.226562	-80.960144
3033.203125	-81.046852
3034.179688	-80.569275
3035.156250	-80.415543
3036.132812	-81.174362
3037.109375	-80.416351
3038.085938	-80.761055
3039.062500	-80.960449
3040.039062	-79.972504
3041.015625	-80.240891
3041.992188	-81.636307
3042.968750	-80.112350
3043.945312	-80.379868
3044.921875	-80.392021
3045.898438	-79.159859
3046.875000	-79.967491
3047.851562	-79.660942
3048.828125	-79.983765
3049.804688	-80.231445
3050.781250	-79.622475
3051.757812	-80.403755
3052.734375	-79.684227
3053.710938	-80.332298
3054.687500	-79.790749
3055.664062	-80.128220
3056.640625	-80.452713
3057.617188	-79.612663
3058.593750	-79.681526
3059.570312	-80.122910
3060.546875	-79.793388
3061.523438	-80.171768
3062.500000	-80.519951
3063.476562	-80.074402
3064.453125	-79.011375
3065.429688	-79.757744
3066.406250	-80.293732
3067.382812	-79.632362
3068.359375	-80.063461
3069.335938	-79.715736
3070.312500	-79.986519
3071.289062	-80.337608
3072.265625	-79.925331
3073.242188	-79.795479
3074.218750	-80.076859
3075.195312	-79.467331
3076.171875	-79.870689
3077.148438	-80.279625
3078.125000	-80.625046
3079.101562	-80.390892
3080.078125	-80.350052
3081.054688	-80.677834
3082.031250	-81.671822
3083.007812	-80.599007
3083.984375	-81.123482
3084.960938	-81.454086
3085.937500	-81.113457
3086.914062	-80.568779
3087.890625	-81.563843
3088.867188	-80.673195
3089.843750	-80.712723
3090.820312	-80.639610
3091.796875	-81.029045
3092.773438	-81.277420
3093.750000	-81.604309
3094.726562	-80.988556
3095.703125	-81.278770
3096.679688	-81.272919
3097.656250	-81.275780
3098.632812	-82.100334
3099.609375	-81.567261
3100.585938	-81.403122
3101.562500	-81.387833
3102.539062	-81.607338
3103.515625	-82.145851
3104.492188	-82.733818
3105.468750	-81.810524
3106.445312	-82.141068
3107.421875	-82.763382
3108.398438	-83.319183
3109.375000	-83.527870
3110.351562	-83.337837
3111.328125	-83.842346
3112.304688	-83.711067
3113.281250	-83.358986
3114.257812	-84.006157
3115.234375	-83.740364
3116.210938	-84.021202
3117.187500	-83.893776
3118.164062	-84.424110
3119.140625	-84.408684
3120.117188	-84.702385
3121.093750	-84.740669
3122.070312	-84.463181
3123.046875	-85.170647
3124.023438	-85.591614
3125.000000	-85.410759
3125.976562	-85.552322
3126.953125	-85.443207
3127.929688	-85.370178
3128.906250	-86.069046
3129.882812	-85.260269
3130.859375	-86.369293
3131.835938	-86.564262
3132.812500	-86.438133
3133.789062	-86.785324
3134.765625	-87.402176
3135.742188	-86.331772
3136.718750	-86.852074
3137.695312	-86.601860
3138.671875	-88.001762
3139.648438	-87.554070
3140.625000	-87.311333
3141.601562	-87.349892
3142.578125	-86.990013
3143.554688	-87.178871
3144.531250	-88.023331
3145.507812	-88.015541
3146.484375	-87.680992
3147.460938	-88.048073
3148.437500	-88.072121
3149.414062	-87.465942
3150.390625	-88.424026
3151.367188	-87.568634
3152.343750	-87.916214
3153.320312	-87.725555
3154.296875	-87.710686
3155.273438	-87.888718
3156.250000	-88.381882
3157.226562	-87.318878
3158.203125	-87.623199
3159.179688	-88.421349
3160.156250	-88.223801
3161.132812	-87.359390
3162.109375	-88.083290
3163.085938	-87.732864
3164.062500	-87.131958
3165.039062	-87.881989
3166.015625	-88.210770
3166.992188	-87.986038
3167.968750	-87.859848
3168.945312	-87.863129
3169.921875	-88.399879
3170.898438	-87.601646
3171.875000	-88.686096
3172.851562	-87.609589
3173.828125	-87.199081
3174.804688	-86.709595
3175.781250	-87.741425
3176.757812	-87.559731
3177.734375	-86.510681
3178.710938	-87.317940
3179.687500	-87.894875
3180.664062	-86.648209
3181.640625	-86.533813
3182.617188	-86.575752
3183.593750	-86.562286
3184.570312	-86.017479
3185.546875	-86.220413
3186.523438	-85.791817
3187.500000	-85.649635
3188.476562	-85.939056
3189.453125	-85.377556
3190.429688	-85.498352
3191.406250	-86.129494
3192.382812	-86.005257
3193.359375	-85.666412
3194.335938	-85.070129
3195.312500	-85.068672
3196.289062	-85.732101
3197.265625	-84.809151
3198.242188	-85.225845
3199.218750	-85.355858
3200.195312	-84.569977
3201.171875	-84.466713
3202.148438	-85.712479
3203.125000	-85.798019
3204.101562	-84.064163
3205.078125	-84.536133
3206.054688	-84.764748
3207.031250	-84.637245
3208.007812	-84.377403
3208.984375	-85.122070
3209.960938	-85.054924
3210.937500	-85.270126
3211.914062	-85.674263
3212.890625	-85.058388
3213.867188	-84.879623
3214.843750	-84.983139
3215.820312	-84.532692
3216.796875	-84.495430
3217.773438	-85.428848
3218.750000	-84.574341
3219.726562	-83.373161
3220.703125	-84.476250
3221.679688	-84.267792
3222.656250	-85.020775
3223.632812	-84.701263
3224.609375	-84.390549
3225.585938	-85.273071
3226.562500	-85.011002
3227.539062	-86.219139
3228.515625	-85.256760
3229.492188	-86.019333
3230.468750	-86.060211
3231.445312	-84.360283
3232.421875	-84.816460
3233.398438	-85.567734
3234.375000	-85.639557
3235.351562	-86.240532
3236.328125	-85.256584
3237.304688	-85.327393
3238.281250	-86.132980
3239.257812	-85.644485
3240.234375	-85.814293
3241.210938	-86.816299
3242.187500	-86.462593
3243.164062	-86.758842
3244.140625	-85.496964
3245.117188	-86.373566
3246.093750	-87.064819
3247.070312	-87.278976
3248.046875	-86.798874
3249.023438	-86.009865
3250.000000	-87.388229
3250.976562	-86.603836
3251.953125	-86.519974
3252.929688	-86.678238
3253.906250	-86.739983
3254.882812	-86.846237
3255.859375	-87.228996
3256.835938	-87.335274
3257.812500	-87.466080
3258.789062	-87.881195
3259.765625	-87.467743
3260.742188	-87.750130
3261.718750	-88.322807
3262.695312	-87.834328
3263.671875	-88.436073
3264.648438	-88.854988
3265.625000	-88.272743
3266.601562	-88.170067
3267.578125	-88.216606
3268.554688	-88.405251
3269.531250	-88.904648
3270.507812	-88.867325
3271.484375	-88.637413
3272.460938	-88.636215
3273.437500	-88.529472
3274.414062	-88.462906
3275.390625	-88.656784
3276.367188	-88.534615
3277.343750	-89.180260
3278.320312	-88.498306
3279.296875	-88.633705
3280.273438	-89.060349
3281.250000	-88.787079
3282.226562	-89.611900
3283.203125	-88.427681
3284.179688	-89.225784
3285.156250	-88.940498
3286.132812	-89.088394
3287.109375	-88.729813
3288.085938	-89.168816
3289.062500	-89.232323
3290.039062	-88.746391
3291.015625	-89.153740
3291.992188	-88.771744
3292.968750	-89.374535
3293.945312	-88.685661
3294.921875	-88.789757
3295.898438	-89.078888
3296.875000	-89.003647
3297.851562	-88.430519
3298.828125	-89.538673
3299.804688	-88.627815
3300.781250	-88.292419
3301.757812	-88.956161
3302.734375	-88.571976
3303.710938	-89.164658
3304.687500	-88.994926
3305.664062	-88.439415
3306.640625	-88.513161
3307.617188	-87.743591
3308.593750	-88.377426
3309.570312	-87.762924
3310.546875	-88.307129
3311.523438	-87.898804
3312.500000	-87.591751
3313.476562	-87.993561
3314.453125	-86.691940
3315.429688	-86.469528
3316.406250	-87.039307
3317.382812	-86.139923
3318.359375	-87.283463
3319.335938	-87.094444
3320.312500	-87.340477
3321.289062	-87.428436
3322.265625	-87.607445
3323.242188	-87.363197
3324.218750	-85.990181
3325.195312	-86.279617
3326.171875	-86.910103
3327.148438	-86.618576
3328.125000	-86.902847
3329.101562	-86.406212
3330.078125	-85.872368
3331.054688	-86.316246
3332.031250	-86.876320
3333.007812	-85.995834
3333.984375	-84.752998
3334.960938	-86.207222
3335.937500	-86.521980
3336.914062	-86.105598
3337.890625	-85.929398
3338.867188	-85.136162
3339.843750	-85.193588
3340.820312	-86.045876
3341.796875	-85.439453
3342.773438	-85.391930
3343.750000	-84.666901
3344.726562	-85.271942
3345.703125	-84.396637
3346.679688	-84.813141
3347.656250	-84.548332
3348.632812	-84.812645
3349.609375	-84.880394
3350.585938	-84.946266
3351.562500	-85.485504
3352.539062	-84.912224
3353.515625	-84.979584
3354.492188	-85.604904
3355.468750	-84.653160
3356.445312	-84.558556
3357.421875	-85.392967
3358.398438	-85.215462
3359.375000	-85.199654
3360.351562	-84.636696
3361.328125	-85.557693
3362.304688	-84.766014
3363.281250	-85.572571
3364.257812	-84.936378
3365.234375	-83.888222
3366.210938	-85.038643
3367.187500	-85.748482
3368.164062	-84.816666
3369.140625	-84.373566
3370.117188	-84.366676
3371.093750	-85.168396
3372.070312	-85.151848
3373.046875	-85.266670
3374.023438	-85.188988
3375.000000	-85.203682
3375.976562	-84.886574
3376.953125	-86.444176
3377.929688	-85.043930
3378.906250	-85.602348
3379.882812	-85.925262
3380.859375	-85.691444
3381.835938	-85.073975
3382.812500	-85.285255
3383.789062	-85.192574
3384.765625	-85.702309
3385.742188	-86.474571
3386.718750	-86.249855
3387.695312	-86.030098
3388.671875	-86.718208
3389.648438	-86.123589
3390.625000	-86.411270
3391.601562	-86.683914
3392.578125	-86.943718
3393.554688	-86.520271
3394.531250	-86.352242
3395.507812	-86.457405
3396.484375	-86.545166
3397.460938	-87.041145
3398.437500	-87.620224
3399.414062	-87.118210
3400.390625	-87.324425
3401.367188	-87.112526
3402.343750	-87.981636
3403.320312	-88.189857
3404.296875	-87.763481
3405.273438	-89.033745
3406.250000	-88.640106
3407.226562	-88.742172
3408.203125	-88.123009
3409.179688	-88.616379
3410.156250	-88.539108
3411.132812	-89.337578
3412.109375	-88.710815
3413.085938	-89.055511
3414.062500	-89.322037
3415.039062	-89.035919
3416.015625	-89.370720
3416.992188	-89.375336
3417.968750	-89.648361
3418.945312	-89.827690
3419.921875	-89.215096
3420.898438	-89.544724
3421.875000	-89.234329
3422.851562	-89.071281
3423.828125	-89.701065
3424.804688	-89.140709
3425.781250	-89.679054
3426.757812	-90.107475
3427.734375	-90.371620
3428.710938	-90.248589
3429.687500	-90.207359
3430.664062	-90.289322
3431.640625	-89.922058
3432.617188	-90.438599
3433.593750	-90.923782
3434.570312	-90.729599
3435.546875	-90.140305
3436.523438	-89.902748
3437.500000	-90.072685
3438.476562	-90.582916
3439.453125	-90.460808
3440.429688	-90.391327
3441.406250	-90.612587
3442.382812	-90.337044
3443.359375	-89.980400
3444.335938	-90.306244
3445.312500	-91.166985
3446.289062	-90.559990
3447.265625	-89.843361
3448.242188	-90.313042
3449.218750	-90.129387
3450.195312	-89.969841
3451.171875	-89.972252
3452.148438	-89.643715
3453.125000	-89.136192
3454.101562	-89.658844
3455.078125	-90.253349
3456.054688	-89.128090
3457.031250	-89.118019
3458.007812	-89.035316
3458.984375	-89.616104
3459.960938	-88.825439
3460.937500	-89.155983
3461.914062	-88.175591
3462.890625	-89.004639
3463.867188	-89.260315
3464.843750	-89.326904
3465.820312	-89.819054
3466.796875	-88.593933
3467.773438	-89.402527
3468.750000	-89.071754
3469.726562	-89.240166
3470.703125	-89.549973
3471.679688	-89.523697
3472.656250	-88.709450
3473.632812	-88.741936
3474.609375	-88.879410
3475.585938	-88.711197
3476.562500	-89.322578
3477.539062	-88.854774
3478.515625	-88.669220
3479.492188	-89.153397
3480.468750	-89.865822
3481.445312	-89.210884
3482.421875	-88.411186
3483.398438	-88.677063
3484.375000	-89.070602
3485.351562	-88.724228
3486.328125	-89.203514
3487.304688	-89.624725
3488.281250	-88.663177
3489.257812	-89.006081
3490.234375	-89.412964
3491.210938	-89.976517
3492.187500	-88.878922
3493.164062	-89.211739
3494.140625	-89.813438
3495.117188	-89.772614
3496.093750	-88.440788
3497.070312	-89.048866
3498.046875	-90.010498
3499.023438	-89.585976
3500.000000	-89.175003
3500.976562	-89.821487
3501.953125	-89.442497
3502.929688	-89.223724
3503.906250	-88.878212
3504.882812	-89.699791
3505.859375	-89.628464
3506.835938	-89.721466
3507.812500	-89.176140
3508.789062	-90.108459
3509.765625	-89.191826
3510.742188	-89.363159
3511.718750	-88.867477
3512.695312	-90.185356
3513.671875	-89.587494
3514.648438	-88.886047
3515.625000	-89.135971
3516.601562	-89.618340
3517.578125	-90.046654
3518.554688	-89.344742
3519.531250	-89.023643
3520.507812	-89.281403
3521.484375	-89.333122
3522.460938	-88.823235
3523.437500	-88.814133
3524.414062	-89.015099
3525.390625	-89.107597
3526.367188	-88.365433
3527.343750	-89.308029
3528.320312	-89.248070
3529.296875	-87.761597
3530.273438	-89.116089
3531.250000	-88.909027
3532.226562	-88.569603
3533.203125	-88.753639
3534.179688	-88.620186
3535.156250	-87.880066
3536.132812	-88.425575
3537.109375	-88.087051
3538.085938	-87.766708
3539.062500	-88.624619
3540.039062	-89.364250
3541.015625	-88.418503
3541.992188	-88.890106
3542.968750	-88.709160
3543.945312	-88.595490
3544.921875	-88.845497
3545.898438	-88.662727
3546.875000	-88.498901
3547.851562	-88.205124
3548.828125	-89.204460
3549.804688	-88.500778
3550.781250	-88.819580
3551.757812	-89.577805
3552.734375	-89.472687
3553.710938	-88.577507
3554.687500	-88.229721
3555.664062	-88.343040
3556.640625	-88.859253
3557.617188	-89.540833
3558.593750	-88.723846
3559.570312	-88.731384
3560.546875	-89.253616
3561.523438	-88.944046
3562.500000	-89.575142
3563.476562	-89.479225
3564.453125	-89.831383
3565.429688	-89.323441
3566.406250	-89.078865
3567.382812	-89.600403
3568.359375	-90.090195
3569.335938	-88.815689
3570.312500	-89.574272
3571.289062	-90.216667
3572.265625	-89.983818
3573.242188	-89.846016
3574.218750	-90.633705
3575.195312	-90.851303
3576.171875	-90.455429
3577.148438	-90.343079
3578.125000	-91.222435
3579.101562	-91.449692
3580.078125	-91.447571
3581.054688	-90.183266
3582.031250	-90.544846
3583.007812	-91.324432
3583.984375	-91.280334
3584.960938	-91.009056
3585.937500	-91.449867
3586.914062	-91.294250
3587.890625	-90.525436
3588.867188	-92.547501
3589.843750	-92.265015
3590.820312	-91.191826
3591.796875	-92.084091
3592.773438	-91.916611
3593.750000	-91.503403
3594.726562	-92.762459
3595.703125	-93.041061
3596.679688	-93.129646
3597.656250	-92.845421
3598.632812	-93.509354
3599.609375	-92.785698
3600.585938	-93.001717
3601.562500	-92.702072
3602.539062	-94.116104
3603.515625	-93.875732
3604.492188	-93.620857
3605.468750	-93.808533
3606.445312	-94.389114
3607.421875	-94.518158
3608.398438	-93.700478
3609.375000	-93.455811
3610.351562	-94.530586
3611.328125	-94.529831
3612.304688	-93.783173
3613.281250	-95.017174
3614.257812	-95.354485
3615.234375	-94.993469
3616.210938	-94.853508
3617.187500	-94.805061
3618.164062	-95.323143
3619.140625	-95.692947
3620.117188	-95.142181
3621.093750	-94.822144
3622.070312	-96.044922
3623.046875	-95.032448
3624.023438	-95.124977
3625.000000	-96.295609
3625.976562	-95.264496
3626.953125	-95.478828
3627.929688	-95.121025
3628.906250	-95.434784
3629.882812	-95.372322
3630.859375	-95.251961
3631.835938	-96.011520
3632.812500	-95.633087
3633.789062	-95.505356
3634.765625	-96.107903
3635.742188	-95.694260
3636.718750	-95.644264
3637.695312	-95.263817
3638.671875	-94.738869
3639.648438	-95.120300
3640.625000	-94.341553
3641.601562	-95.289848
3642.578125	-94.946365
3643.554688	-95.442902
3644.531250	-95.549393
3645.507812	-94.985893
3646.484375	-94.962639
3647.460938	-94.941696
3648.437500	-95.016632
3649.414062	-95.260956
3650.390625	-94.473557
3651.367188	-93.626457
3652.343750	-94.296486
3653.320312	-94.058014
3654.296875	-94.226692
3655.273438	-94.870605
3656.250000	-93.779541
3657.226562	-94.371841
3658.203125	-93.945663
3659.179688	-94.352692
3660.156250	-93.526604
3661.132812	-93.928040
3662.109375	-93.464211
3663.085938	-93.325462
3664.062500	-93.216774
3665.039062	-93.383049
3666.015625	-94.038651
3666.992188	-93.591095
3667.968750	-93.069633
3668.945312	-93.280945
3669.921875	-93.270447
3670.898438	-93.258430
3671.875000	-93.840828
3672.851562	-93.590103
3673.828125	-93.183243
3674.804688	-92.648529
3675.781250	-92.887352
3676.757812	-92.833618
3677.734375	-93.373123
3678.710938	-92.120720
3679.687500	-93.781952
3680.664062	-93.028038
3681.640625	-93.653534
3682.617188	-92.926155
3683.593750	-92.452019
3684.570312	-92.152161
3685.546875	-92.040787
3686.523438	-91.939636
3687.500000	-92.676620
3688.476562	-92.479210
3689.453125	-93.011345
3690.429688	-92.839912
3691.406250	-93.160500
3692.382812	-92.689865
3693.359375	-92.822594
3694.335938	-92.854019
3695.312500	-92.568237
3696.289062	-92.492622
3697.265625	-92.597275
3698.242188	-93.476738
3699.218750	-92.801292
3700.195312	-93.544060
3701.171875	-92.185852
3702.148438	-93.273888
3703.125000	-93.223793
3704.101562	-92.449341
3705.078125	-93.074577
3706.054688	-92.415016
3707.031250	-92.971382
3708.007812	-93.170944
3708.984375	-92.989845
3709.960938	-92.647385
3710.937500	-92.056976
3711.914062	-92.611588
3712.890625	-92.954758
3713.867188	-92.201599
3714.843750	-92.929092
3715.820312	-92.914719
3716.796875	-92.137535
3717.773438	-92.517204
3718.750000	-92.124870
3719.726562	-92.340515
3720.703125	-92.650871
3721.679688	-92.450226
3722.656250	-92.708031
3723.632812	-92.384682
3724.609375	-92.794044
3725.585938	-92.119743
3726.562500	-92.899040
3727.539062	-92.734741
3728.515625	-92.249725
3729.492188	-91.929832
3730.468750	-92.889519
3731.445312	-92.034286
3732.421875	-92.382378
3733.398438	-91.890877
3734.375000	-92.379539
3735.351562	-92.237274
3736.328125	-92.504517
3737.304688	-93.053848
3738.281250	-93.670921
3739.257812	-93.038887
3740.234375	-92.254913
3741.210938	-92.616722
3742.187500	-92.628067
3743.164062	-93.256317
3744.140625	-92.504601
3745.117188	-91.949341
3746.093750	-92.968224
3747.070312	-92.555458
3748.046875	-92.496460
3749.023438	-91.976532
3750.000000	-93.155357
3750.976562	-92.935928
3751.953125	-92.811020
3752.929688	-92.347595
3753.906250	-92.281334
3754.882812	-92.712227
3755.859375	-91.839569
3756.835938	-92.633621
3757.812500	-93.164307
3758.789062	-92.112694
3759.765625	-92.215500
3760.742188	-92.878014
3761.718750	-92.977806
3762.695312	-92.589996
3763.671875	-93.056389
3764.648438	-93.437256
3765.625000	-92.549751
3766.601562	-92.958229
3767.578125	-92.384872
3768.554688	-92.203323
3769.531250	-92.913971
3770.507812	-92.705643
3771.484375	-93.170021
3772.460938	-92.799072
3773.437500	-92.868523
3774.414062	-92.925835
3775.390625	-93.441490
3776.367188	-93.132935
3777.343750	-92.655327
3778.320312	-92.887924
3779.296875	-92.887077
3780.273438	-92.613556
3781.250000	-92.868774
3782.226562	-92.702522
3783.203125	-92.714706
3784.179688	-92.939278
3785.156250	-92.798523
3786.132812	-93.548103
3787.109375	-92.572510
3788.085938	-93.109047
3789.062500	-93.378113
3790.039062	-92.914253
3791.015625	-93.520920
3791.992188	-93.578201
3792.968750	-94.215874
3793.945312	-93.434608
3794.921875	-94.376862
3795.898438	-94.223534
3796.875000	-93.822197
3797.851562	-93.387207
3798.828125	-93.989098
3799.804688	-93.603218
3800.781250	-93.996231
3801.757812	-94.076546
3802.734375	-94.162964
3803.710938	-94.600212
3804.687500	-94.316559
3805.664062	-94.498909
3806.640625	-94.776367
3807.617188	-94.333412
3808.593750	-94.428513
3809.570312	-94.497276
3810.546875	-94.482292
3811.523438	-94.938469
3812.500000	-95.083206
3813.476562	-95.507820
3814.453125	-95.261932
3815.429688	-94.766502
3816.406250	-95.582420
3817.382812	-95.144379
3818.359375	-95.689621
3819.335938	-95.696388
3820.312500	-95.749817
3821.289062	-95.198067
3822.265625	-95.852394
3823.242188	-95.772911
3824.218750	-95.668922
3825.195312	-95.746513
3826.171875	-96.412018
3827.148438	-96.041527
3828.125000	-96.261940
3829.101562	-95.583832
3830.078125	-95.989830
3831.054688	-96.180420
3832.031250	-96.838196
3833.007812	-96.793785
3833.984375	-96.902092
3834.960938	-96.369423
3835.937500	-96.277229
3836.914062	-97.038857
3837.890625	-96.358971
3838.867188	-96.279762
3839.843750	-97.179054
3840.820312	-96.823021
3841.796875	-96.817337
3842.773438	-97.364525
3843.750000	-97.048904
3844.726562	-97.323418
3845.703125	-97.000404
3846.679688	-97.375534
3847.656250	-97.140785
3848.632812	-97.872093
3849.609375	-97.265266
3850.585938	-97.924530
3851.562500	-97.132805
3852.539062	-97.780006
3853.515625	-97.820244
3854.492188	-97.535500
3855.468750	-98.910873
3856.445312	-98.902931
3857.421875	-98.471367
3858.398438	-98.617577
3859.375000	-98.632385
3860.351562	-98.689781
3861.328125	-98.929283
3862.304688	-98.510765
3863.281250	-98.292358
3864.257812	-98.457634
3865.234375	-99.239952
3866.210938	-99.547966
3867.187500	-99.072380
3868.164062	-99.519218
3869.140625	-99.078690
3870.117188	-99.180458
3871.093750	-99.038452
3872.070312	-99.907829
3873.046875	-99.834312
3874.023438	-100.542717
3875.000000	-99.758644
3875.976562	-100.357094
3876.953125	-99.430473
3877.929688	-99.275002
3878.906250	-99.896530
3879.882812	-100.739258
3880.859375	-100.279648
3881.835938	-100.190681
3882.812500	-100.065399
3883.789062	-100.401764
3884.765625	-100.788139
3885.742188	-100.655830
3886.718750	-100.636368
3887.695312	-101.041023
3888.671875	-100.049629
3889.648438	-100.449348
3890.625000	-101.316414
3891.601562	-100.228210
3892.578125	-100.767838
3893.554688	-100.583832
3894.531250	-101.451500
3895.507812	-100.959419
3896.484375	-99.925697
3897.460938	-101.338326
3898.437500	-100.881065
3899.414062	-100.683319
3900.390625	-100.702881
3901.367188	-100.440292
3902.343750	-101.335480
3903.320312	-100.611511
3904.296875	-100.915451
3905.273438	-101.743858
3906.250000	-100.739098
3907.226562	-100.757301
3908.203125	-100.243980
3909.179688	-100.496582
3910.156250	-101.660522
3911.132812	-100.842072
3912.109375	-100.399147
3913.085938	-100.615669
3914.062500	-100.883781
3915.039062	-101.117455
3916.015625	-100.922386
3916.992188	-100.931381
3917.968750	-100.415665
3918.945312	-100.091850
3919.921875	-99.745720
3920.898438	-100.611954
3921.875000	-100.897285
3922.851562	-100.927597
3923.828125	-100.744568
3924.804688	-100.815559
3925.781250	-100.213158
3926.757812	-100.733521
3927.734375	-101.231720
3928.710938	-100.511826
3929.687500	-101.242744
3930.664062	-101.150192
3931.640625	-101.224937
3932.617188	-100.500298
3933.593750	-101.314850
3934.570312	-100.102951
3935.546875	-101.369461
3936.523438	-100.907280
3937.500000	-101.134430
3938.476562	-100.169724
3939.453125	-100.770302
3940.429688	-100.822906
3941.406250	-100.851654
3942.382812	-100.415520
3943.359375	-101.174728
3944.335938	-101.023361
3945.312500	-100.699783
3946.289062	-100.894547
3947.265625	-100.127533
3948.242188	-101.266846
3949.218750	-101.612083
3950.195312	-100.823677
3951.171875	-100.776787
3952.148438	-100.417549
3953.125000	-100.711861
3954.101562	-100.201759
3955.078125	-100.648941
3956.054688	-100.625099
3957.031250	-100.151917
3958.007812	-100.139732
3958.984375	-100.425179
3959.960938	-100.719635
3960.937500	-101.200745
3961.914062	-100.871307
3962.890625	-100.954979
3963.867188	-101.438652
3964.843750	-100.010246
3965.820312	-101.135620
3966.796875	-101.750626
3967.773438	-100.860634
3968.750000	-100.461456
3969.726562	-100.760468
3970.703125	-101.379166
3971.679688	-100.616402
3972.656250	-100.206001
3973.632812	-100.425644
3974.609375	-100.288757
3975.585938	-100.777893
3976.562500	-100.999580
3977.539062	-100.576248
3978.515625	-100.532684
3979.492188	-100.434120
3980.468750	-101.256897
3981.445312	-100.878914
3982.421875	-100.999458
3983.398438	-100.713417
3984.375000	-101.221649
3985.351562	-100.451996
3986.328125	-100.826149
3987.304688	-100.594307
3988.281250	-99.732002
3989.257812	-100.617386
3990.234375	-100.729454
3991.210938	-100.791405
3992.187500	-100.464645
3993.164062	-100.496468
3994.140625	-101.791412
3995.117188	-100.968643
3996.093750	-101.558250
3997.070312	-100.511627
3998.046875	-100.418449
3999.023438	-100.733078
4000.000000	-100.430283
4000.976562	-101.121506
4001.953125	-100.342499
4002.929688	-100.902618
4003.906250	-101.346680
4004.882812	-101.413177
4005.859375	-101.320526
4006.835938	-100.959412
4007.812500	-100.964172
4008.789062	-101.037308
4009.765625	-100.981369
4010.742188	-101.058823
4011.718750	-101.213463
4012.695312	-102.475624
4013.671875	-100.938240
4014.648438	-101.320641
4015.625000	-101.947433
4016.601562	-101.776833
4017.578125	-100.498596
4018.554688	-100.391006
4019.531250	-100.533058
4020.507812	-100.570496
4021.484375	-100.870171
4022.460938	-100.745766
4023.437500	-100.040070
4024.414062	-101.084305
4025.390625	-100.252457
4026.367188	-100.962196
4027.343750	-101.049049
4028.320312	-100.345612
4029.296875	-100.289818
4030.273438	-99.917747
4031.250000	-100.447227
4032.226562	-101.145027
4033.203125	-99.849640
4034.179688	-100.112579
4035.156250	-100.164932
4036.132812	-100.660622
4037.109375	-100.371094
4038.085938	-100.930389
4039.062500	-100.150261
4040.039062	-100.472275
4041.015625	-100.624435
4041.992188	-100.703209
4042.968750	-101.065186
4043.945312	-99.581535
4044.921875	-100.542664
4045.898438	-100.527939
4046.875000	-100.362717
4047.851562	-100.311172
4048.828125	-100.433167
4049.804688	-100.584831
4050.781250	-100.648323
4051.757812	-100.732513
4052.734375	-100.258682
4053.710938	-100.320824
4054.687500	-99.844543
4055.664062	-100.344475
4056.640625	-101.272499
4057.617188	-99.887627
4058.593750	-100.133652
4059.570312	-99.800087
4060.546875	-100.493881
4061.523438	-100.807365
4062.500000	-100.694870
4063.476562	-100.375595
4064.453125	-99.688377
4065.429688	-99.977203
4066.406250	-100.610397
4067.382812	-100.269478
4068.359375	-99.882927
4069.335938	-99.776726
4070.312500	-100.492737
4071.289062	-100.110100
4072.265625	-99.046143
4073.242188	-99.900551
4074.218750	-100.252945
4075.195312	-100.138947
4076.171875	-100.042061
4077.148438	-99.637505
4078.125000	-100.404839
4079.101562	-100.697845
4080.078125	-100.096169
4081.054688	-99.535866
4082.031250	-100.107445
4083.007812	-100.410370
4083.984375	-100.746895
4084.960938	-99.663315
4085.937500	-100.807220
4086.914062	-100.697647
4087.890625	-99.453987
4088.867188	-100.120712
4089.843750	-99.847931
4090.820312	-99.797455
4091.796875	-99.880280
4092.773438	-100.380333
4093.750000	-100.215652
4094.726562	-100.708565
4095.703125	-99.918205
4096.679688	-100.878006
4097.656250	-100.848457
4098.632812	-100.787384
4099.609375	-101.102501
4100.585938	-100.248222
4101.562500	-100.331223
4102.539062	-100.929581
4103.515625	-100.820435
4104.492188	-100.982162
4105.468750	-101.430359
4106.445312	-100.809898
4107.421875	-101.225273
4108.398438	-100.692879
4109.375000	-100.401535
4110.351562	-100.907578
4111.328125	-100.598045
4112.304688	-101.001625
4113.281250	-100.994293
4114.257812	-100.790634
4115.234375	-100.520531
4116.210938	-100.944527
4117.187500	-101.307426
4118.164062	-101.020004
4119.140625	-101.286110
4120.117188	-100.673615
4121.093750	-100.666893
4122.070312	-101.625748
4123.046875	-101.730576
4124.023438	-101.525581
4125.000000	-100.604042
4125.976562	-101.232361
4126.953125	-101.713310
4127.929688	-102.167664
4128.906250	-101.371597
4129.882812	-102.163971
4130.859375	-101.910591
4131.835938	-101.988838
4132.812500	-101.610497
4133.789062	-102.188057
4134.765625	-102.490173
4135.742188	-101.702866
4136.718750	-102.718422
4137.695312	-102.793327
4138.671875	-102.258926
4139.648438	-102.924477
4140.625000	-102.362213
4141.601562	-101.791649
4142.578125	-101.426147
4143.554688	-101.846519
4144.531250	-101.710770
4145.507812	-102.197884
4146.484375	-103.058807
4147.460938	-102.701454
4148.437500	-102.099098
4149.414062	-102.418747
4150.390625	-102.426453
4151.367188	-102.166542
4152.343750	-101.953827
4153.320312	-102.592323
4154.296875	-103.127121
4155.273438	-102.998306
4156.250000	-102.830956
4157.226562	-103.326683
4158.203125	-103.102287
4159.179688	-103.064781
4160.156250	-102.863281
4161.132812	-102.581139
4162.109375	-102.795052
4163.085938	-103.496323
4164.062500	-104.114395
4165.039062	-103.353447
4166.015625	-103.991096
4166.992188	-102.612717
4167.968750	-103.095398
4168.945312	-103.910851
4169.921875	-104.330956
4170.898438	-104.127518
4171.875000	-104.208977
4172.851562	-103.670700
4173.828125	-104.142136
4174.804688	-104.710670
4175.781250	-104.348427
4176.757812	-104.401230
4177.734375	-104.588531
4178.710938	-103.606163
4179.687500	-105.423698
4180.664062	-104.258606
4181.640625	-105.066437
4182.617188	-104.863747
4183.593750	-104.134407
4184.570312	-103.680603
4185.546875	-104.067451
4186.523438	-104.410751
4187.500000	-104.444298
4188.476562	-104.109642
4189.453125	-104.496231
4190.429688	-104.854996
4191.406250	-105.555344
4192.382812	-103.918304
4193.359375	-104.415253
4194.335938	-104.503487
4195.312500	-105.223183
4196.289062	-104.642258
4197.265625	-104.578476
4198.242188	-105.384781
4199.218750	-105.859940
4200.195312	-104.708603
4201.171875	-104.759483
4202.148438	-105.619545
4203.125000	-105.580231
4204.101562	-105.605927
4205.078125	-105.337349
4206.054688	-106.501579
4207.031250	-106.242592
4208.007812	-105.702019
4208.984375	-106.616226
4209.960938	-105.429047
4210.937500	-106.312309
4211.914062	-106.745255
4212.890625	-106.367905
4213.867188	-105.945183
4214.843750	-105.698799
4215.820312	-105.730438
4216.796875	-105.600334
4217.773438	-106.120255
4218.750000	-106.425415
4219.726562	-105.830345
4220.703125	-104.806694
4221.679688	-106.417809
4222.656250	-106.739021
4223.632812	-105.501343
4224.609375	-106.070213
4225.585938	-106.321686
4226.562500	-106.702065
4227.539062	-106.623512
4228.515625	-105.984772
4229.492188	-105.769447
4230.468750	-106.124123
4231.445312	-106.246780
4232.421875	-107.165497
4233.398438	-106.392731
4234.375000	-106.967346
4235.351562	-105.606667
4236.328125	-106.196388
4237.304688	-107.025978
4238.281250	-106.901810
4239.257812	-106.415329
4240.234375	-107.160225
4241.210938	-107.118095
4242.187500	-107.441711
4243.164062	-106.759224
4244.140625	-106.590897
4245.117188	-106.640678
4246.093750	-106.957733
4247.070312	-106.945076
4248.046875	-107.092514
4249.023438	-106.797745
4250.000000	-106.666916
4250.976562	-106.738182
4251.953125	-107.135918
4252.929688	-106.739540
4253.906250	-107.836273
4254.882812	-106.253990
4255.859375	-107.292702
4256.835938	-107.435509
4257.812500	-107.482452
4258.789062	-107.421532
4259.765625	-106.845688
4260.742188	-107.832253
4261.718750	-107.725136
4262.695312	-107.901871
4263.671875	-107.159103
4264.648438	-107.201439
4265.625000	-107.585098
4266.601562	-108.049461
4267.578125	-108.171402
4268.554688	-108.494255
4269.531250	-107.636421
4270.507812	-108.785912
4271.484375	-108.620239
4272.460938	-108.233261
4273.437500	-107.967041
4274.414062	-108.634552
4275.390625	-108.149055
4276.367188	-108.227959
4277.343750	-108.364365
4278.320312	-108.974617
4279.296875	-108.444061
4280.273438	-108.411224
4281.250000	-109.024658
4282.226562	-108.804916
4283.203125	-109.077194
4284.179688	-108.729187
4285.156250	-108.963448
4286.132812	-108.756058
4287.109375	-109.191238
4288.085938	-108.389771
4289.062500	-109.021233
4290.039062	-108.789276
4291.015625	-107.711281
4291.992188	-108.981979
4292.968750	-108.278709
4293.945312	-108.725052
4294.921875	-108.183502
4295.898438	-108.851807
4296.875000	-108.351501
4297.851562	-109.258942
4298.828125	-108.183464
4299.804688	-109.688126
4300.781250	-108.516098
4301.757812	-108.618546
4302.734375	-108.409172
4303.710938	-108.846695
4304.687500	-108.258278
4305.664062	-108.890518
4306.640625	-108.360123
4307.617188	-108.540733
4308.593750	-108.203468
4309.570312	-108.115524
4310.546875	-107.799011
4311.523438	-108.294746
4312.500000	-107.605324
4313.476562	-108.786354
4314.453125	-107.802856
4315.429688	-108.057716
4316.406250	-107.836571
4317.382812	-108.904053
4318.359375	-108.367592
4319.335938	-107.192017
4320.312500	-107.196075
4321.289062	-107.990738
4322.265625	-107.523422
4323.242188	-107.337738
4324.218750	-106.794632
4325.195312	-107.917641
4326.171875	-107.315819
4327.148438	-106.956963
4328.125000	-107.156799
4329.101562	-107.813820
4330.078125	-106.812218
4331.054688	-106.493179
4332.031250	-106.534081
4333.007812	-106.336075
4333.984375	-106.969040
4334.960938	-106.294350
4335.937500	-106.987175
4336.914062	-106.461388
4337.890625	-106.251465
4338.867188	-106.357216
4339.843750	-106.723228
4340.820312	-105.612846
4341.796875	-105.390793
4342.773438	-105.779709
4343.750000	-105.319214
4344.726562	-106.040298
4345.703125	-105.236374
4346.679688	-105.327309
4347.656250	-105.497604
4348.632812	-104.802086
4349.609375	-105.516853
4350.585938	-105.372063
4351.562500	-104.262993
4352.539062	-105.580658
4353.515625	-105.605194
4354.492188	-105.556381
4355.468750	-105.409264
4356.445312	-105.093620
4357.421875	-105.495941
4358.398438	-105.289436
4359.375000	-105.299416
4360.351562	-105.606445
4361.328125	-105.721085
4362.304688	-105.089737
4363.281250	-105.238190
4364.257812	-104.874382
4365.234375	-105.371185
4366.210938	-104.729286
4367.187500	-105.086884
4368.164062	-104.549957
4369.140625	-105.472870
4370.117188	-104.991074
4371.093750	-105.586632
4372.070312	-106.691040
4373.046875	-105.693596
4374.023438	-105.904358
4375.000000	-105.782677
4375.976562	-105.038704
4376.953125	-105.929405
4377.929688	-104.894226
4378.906250	-105.735786
4379.882812	-106.493126
4380.859375	-105.051041
4381.835938	-105.523804
4382.812500	-105.915154
4383.789062	-105.872383
4384.765625	-106.828835
4385.742188	-106.119316
4386.718750	-105.680420
4387.695312	-105.483627
4388.671875	-105.485802
4389.648438	-105.823296
4390.625000	-105.805321
4391.601562	-106.129684
4392.578125	-105.437698
4393.554688	-105.866165
4394.531250	-105.100037
4395.507812	-105.279045
4396.484375	-105.210724
4397.460938	-105.813278
4398.437500	-106.162399
4399.414062	-105.305237
4400.390625	-104.757271
4401.367188	-104.379875
4402.343750	-104.593376
4403.320312	-105.035629
4404.296875	-104.501579
4405.273438	-103.780106
4406.250000	-104.760712
4407.226562	-104.857231
4408.203125	-104.590508
4409.179688	-103.764259
4410.156250	-104.309387
4411.132812	-104.005486
4412.109375	-103.814011
4413.085938	-103.341957
4414.062500	-102.876366
4415.039062	-103.850548
4416.015625	-103.064819
4416.992188	-103.805862
4417.968750	-104.055252
4418.945312	-103.328796
4419.921875	-103.309669
4420.898438	-103.680237
4421.875000	-104.086945
4422.851562	-103.080246
4423.828125	-103.068130
4424.804688	-102.706238
4425.781250	-102.144989
4426.757812	-102.430374
4427.734375	-102.699875
4428.710938	-101.909851
4429.687500	-102.971268
4430.664062	-102.698227
4431.640625	-102.498787
4432.617188	-101.983810
4433.593750	-102.989777
4434.570312	-102.756836
4435.546875	-103.032730
4436.523438	-102.526207
4437.500000	-102.155655
4438.476562	-101.921516
4439.453125	-102.874077
4440.429688	-102.962929
4441.406250	-102.635475
4442.382812	-102.340927
4443.359375	-102.642334
4444.335938	-103.422134
4445.312500	-102.460739
4446.289062	-102.605499
4447.265625	-103.142059
4448.242188	-102.401772
4449.218750	-102.487213
4450.195312	-102.203728
4451.171875	-103.150581
4452.148438	-103.536751
4453.125000	-103.590569
4454.101562	-102.991180
4455.078125	-102.863022
4456.054688	-102.902039
4457.031250	-103.721527
4458.007812	-103.942604
4458.984375	-102.930351
4459.960938	-102.675110
4460.937500	-104.051369
4461.914062	-103.346199
4462.890625	-103.798035
4463.867188	-103.683662
4464.843750	-102.750481
4465.820312	-102.831650
4466.796875	-103.847176
4467.773438	-103.514534
4468.750000	-103.582008
4469.726562	-104.806351
4470.703125	-103.796425
4471.679688	-104.015282
4472.656250	-104.635361
4473.632812	-104.748268
4474.609375	-105.137085
4475.585938	-104.992027
4476.562500	-106.082367
4477.539062	-105.934486
4478.515625	-104.711288
4479.492188	-105.243584
4480.468750	-104.776970
4481.445312	-105.040512
4482.421875	-106.197388
4483.398438	-106.164619
4484.375000	-106.040230
4485.351562	-106.023758
4486.328125	-106.532974
4487.304688	-106.632355
4488.281250	-106.837090
4489.257812	-106.557983
4490.234375	-107.174599
4491.210938	-107.054886
4492.187500	-106.525185
4493.164062	-107.201385
4494.140625	-107.466652
4495.117188	-106.380417
4496.093750	-107.092720
4497.070312	-107.750298
4498.046875	-107.793259
4499.023438	-107.242493
4500.000000	-107.394424
4500.976562	-107.993332
4501.953125	-107.234970
4502.929688	-107.373756
4503.906250	-107.485558
4504.882812	-106.876892
4505.859375	-106.975922
4506.835938	-107.063446
4507.812500	-106.889862
4508.789062	-107.225357
4509.765625	-107.239182
4510.742188	-106.724678
4511.718750	-107.241417
4512.695312	-107.043480
4513.671875	-107.217857
4514.648438	-107.469215
4515.625000	-106.852562
4516.601562	-107.362267
4517.578125	-107.270103
4518.554688	-107.147484
4519.531250	-107.753441
4520.507812	-107.101944
4521.484375	-107.430573
4522.460938	-107.549713
4523.437500	-106.900658
4524.414062	-106.982758
4525.390625	-107.140068
4526.367188	-107.404747
4527.343750	-106.204041
4528.320312	-107.033646
4529.296875	-106.434158
4530.273438	-106.625374
4531.250000	-107.191559
4532.226562	-106.874107
4533.203125	-107.177116
4534.179688	-106.793091
4535.156250	-106.653290
4536.132812	-106.964775
4537.109375	-106.726791
4538.085938	-107.232788
4539.062500	-106.770462
4540.039062	-105.632202
4541.015625	-106.529877
4541.992188	-106.068909
4542.968750	-106.230499
4543.945312	-106.594162
4544.921875	-105.602928
4545.898438	-106.179512
4546.875000	-106.353096
4547.851562	-105.573364
4548.828125	-105.565514
4549.804688	-106.450653
4550.781250	-106.892151
4551.757812	-105.161362
4552.734375	-104.022896
4553.710938	-105.795868
4554.687500	-105.451202
4555.664062	-104.372139
4556.640625	-105.282104
4557.617188	-104.843941
4558.593750	-104.866867
4559.570312	-105.021378
4560.546875	-104.119858
4561.523438	-104.071815
4562.500000	-104.071045
4563.476562	-104.756630
4564.453125	-104.799507
4565.429688	-104.330833
4566.406250	-104.818916
4567.382812	-104.340477
4568.359375	-103.320267
4569.335938	-103.947578
4570.312500	-103.835785
4571.289062	-103.484901
4572.265625	-103.542732
4573.242188	-103.790985
4574.218750	-102.922722
4575.195312	-103.103279
4576.171875	-103.551750
4577.148438	-103.632935
4578.125000	-102.774208
4579.101562	-102.991501
4580.078125	-103.507820
4581.054688	-102.538307
4582.031250	-103.478920
4583.007812	-102.223480
4583.984375	-102.605194
4584.960938	-102.776543
4585.937500	-103.007530
4586.914062	-103.290085
4587.890625	-103.239807
4588.867188	-103.274223
4589.843750	-102.819374
4590.820312	-102.309204
4591.796875	-103.085312
4592.773438	-103.056404
4593.750000	-102.834282
4594.726562	-102.673309
4595.703125	-103.356285
4596.679688	-102.955864
4597.656250	-102.803612
4598.632812	-102.870079
4599.609375	-102.661911
4600.585938	-102.686485
4601.562500	-102.468948
4602.539062	-102.799660
4603.515625	-102.782188
4604.492188	-102.831207
4605.468750	-102.704498
4606.445312	-103.452873
4607.421875	-103.500122
4608.398438	-103.435143
4609.375000	-103.718918
4610.351562	-103.061630
4611.328125	-102.883530
4612.304688	-103.847923
4613.281250	-102.890015
4614.257812	-103.402977
4615.234375	-102.574257
4616.210938	-103.796860
4617.187500	-103.423912
4618.164062	-103.619926
4619.140625	-103.738037
4620.117188	-104.177322
4621.093750	-104.104530
4622.070312	-103.176636
4623.046875	-103.941238
4624.023438	-104.183838
4625.000000	-102.672630
4625.976562	-103.308167
4626.953125	-103.543846
4627.929688	-103.484985
4628.906250	-104.349747
4629.882812	-103.833374
4630.859375	-103.545654
4631.835938	-104.619949
4632.812500	-104.663498
4633.789062	-104.635406
4634.765625	-104.282532
4635.742188	-104.522728
4636.718750	-104.264130
4637.695312	-104.030052
4638.671875	-104.417870
4639.648438	-104.512604
4640.625000	-104.115959
4641.601562	-104.965744
4642.578125	-103.784492
4643.554688	-105.189644
4644.531250	-104.907372
4645.507812	-104.784325
4646.484375	-104.742744
4647.460938	-105.876686
4648.437500	-105.306671
4649.414062	-105.064445
4650.390625	-105.362122
4651.367188	-104.987595
4652.343750	-104.978127
4653.320312	-105.260597
4654.296875	-105.931908
4655.273438	-106.076073
4656.250000	-105.563316
4657.226562	-105.619797
4658.203125	-105.896782
4659.179688	-105.588142
4660.156250	-105.879517
4661.132812	-105.827431
4662.109375	-106.191849
4663.085938	-106.509789
4664.062500	-106.564804
4665.039062	-106.617126
4666.015625	-106.046791
4666.992188	-105.917221
4667.968750	-106.227982
4668.945312	-106.070770
4669.921875	-106.724915
4670.898438	-106.748482
4671.875000	-106.384567
4672.851562	-107.165390
4673.828125	-105.203209
4674.804688	-105.848770
4675.781250	-106.059761
4676.757812	-105.792061
4677.734375	-106.629417
4678.710938	-106.249023
4679.687500	-106.089432
4680.664062	-106.898209
4681.640625	-107.170738
4682.617188	-106.856400
4683.593750	-105.875069
4684.570312	-106.191917
4685.546875	-106.154892
4686.523438	-106.916039
4687.500000	-107.158989
4688.476562	-107.169876
4689.453125	-106.858109
4690.429688	-105.660522
4691.406250	-106.755592
4692.382812	-107.028877
4693.359375	-107.035927
4694.335938	-106.871948
4695.312500	-106.699242
4696.289062	-106.847275
4697.265625	-106.744194
4698.242188	-106.666237
4699.218750	-107.006393
4700.195312	-107.748367
4701.171875	-107.128754
4702.148438	-107.179382
4703.125000	-107.260933
4704.101562	-106.728218
4705.078125	-107.342621
4706.054688	-107.649063
4707.031250	-107.549133
4708.007812	-107.562553
4708.984375	-107.560402
4709.960938	-107.579102
4710.937500	-107.262360
4711.914062	-108.027985
4712.890625	-107.912048
4713.867188	-108.217201
4714.843750	-108.841255
4715.820312	-108.082695
4716.796875	-107.967628
4717.773438	-107.934875
4718.750000	-108.276611
4719.726562	-108.847183
4720.703125	-108.469490
4721.679688	-108.655579
4722.656250	-108.458900
4723.632812	-109.186157
4724.609375	-108.212891
4725.585938	-108.917763
4726.562500	-109.101631
4727.539062	-109.126244
4728.515625	-108.639969
4729.492188	-108.853401
4730.468750	-108.526825
4731.445312	-108.833519
4732.421875	-109.349586
4733.398438	-109.152618
4734.375000	-109.053436
4735.351562	-109.394531
4736.328125	-109.401192
4737.304688	-108.835312
4738.281250	-109.635384
4739.257812	-109.875938
4740.234375	-109.171822
4741.210938	-109.103981
4742.187500	-109.410011
4743.164062	-109.403900
4744.140625	-109.335800
4745.117188	-109.788452
4746.093750	-109.748932
4747.070312	-109.316116
4748.046875	-110.270332
4749.023438	-109.322311
4750.000000	-109.761246
4750.976562	-109.935509
4751.953125	-108.948181
4752.929688	-108.974487
4753.906250	-109.761047
4754.882812	-109.009369
4755.859375	-109.665215
4756.835938	-109.422913
4757.812500	-108.867767
4758.789062	-109.251923
4759.765625	-108.992218
4760.742188	-109.538078
4761.718750	-109.397156
4762.695312	-108.389755
4763.671875	-109.115891
4764.648438	-108.576355
4765.625000	-108.724518
4766.601562	-108.171234
4767.578125	-108.631233
4768.554688	-108.243874
4769.531250	-107.712746
4770.507812	-107.894806
4771.484375	-107.861504
4772.460938	-107.665489
4773.437500	-108.414940
4774.414062	-107.803085
4775.390625	-107.355812
4776.367188	-108.438446
4777.343750	-107.987000
4778.320312	-107.235023
4779.296875	-107.345032
4780.273438	-106.996445
4781.250000	-107.271042
4782.226562	-107.217903
4783.203125	-107.399818
4784.179688	-107.564041
4785.156250	-107.586838
4786.132812	-106.090096
4787.109375	-107.342354
4788.085938	-107.385239
4789.062500	-107.146088
4790.039062	-107.078438
4791.015625	-106.805008
4791.992188	-106.431564
4792.968750	-106.479774
4793.945312	-106.157501
4794.921875	-106.700722
4795.898438	-106.676277
4796.875000	-106.091728
4797.851562	-105.947327
4798.828125	-106.367493
4799.804688	-106.181000
4800.781250	-106.873154
4801.757812	-106.256508
4802.734375	-106.463890
4803.710938	-106.190666
4804.687500	-106.488091
4805.664062	-106.720734
4806.640625	-106.640625
4807.617188	-106.132683
4808.593750	-106.673859
4809.570312	-106.320114
4810.546875	-105.912407
4811.523438	-106.088516
4812.500000	-106.246925
4813.476562	-106.273865
4814.453125	-106.059174
4815.429688	-106.202774
4816.406250	-107.154045
4817.382812	-105.581070
4818.359375	-106.330673
4819.335938	-106.066032
4820.312500	-105.006516
4821.289062	-105.901627
4822.265625	-105.929054
4823.242188	-106.438248
4824.218750	-105.652390
4825.195312	-106.188919
4826.171875	-106.094810
4827.148438	-105.636604
4828.125000	-106.064507
4829.101562	-106.206902
4830.078125	-106.051727
4831.054688	-106.954277
4832.031250	-107.454262
4833.007812	-107.488861
4833.984375	-106.537804
4834.960938	-107.733994
4835.937500	-107.566376
4836.914062	-106.343056
4837.890625	-106.777321
4838.867188	-107.127037
4839.843750	-107.080063
4840.820312	-106.379250
4841.796875	-107.149689
4842.773438	-107.209648
4843.750000	-106.851959
4844.726562	-106.705757
4845.703125	-107.121994
4846.679688	-106.934174
4847.656250	-106.744362
4848.632812	-108.287880
4849.609375	-106.814613
4850.585938	-106.801529
4851.562500	-107.202431
4852.539062	-107.495171
4853.515625	-107.348839
4854.492188	-106.911041
4855.468750	-106.888435
4856.445312	-107.580238
4857.421875	-107.545654
4858.398438	-107.742554
4859.375000	-108.138779
4860.351562	-107.786057
4861.328125	-107.456009
4862.304688	-107.488464
4863.281250	-107.566788
4864.257812	-107.391052
4865.234375	-108.166946
4866.210938	-107.440247
4867.187500	-107.362541
4868.164062	-107.296021
4869.140625	-106.691841
4870.117188	-107.689346
4871.093750	-106.953781
4872.070312	-107.603172
4873.046875	-107.655792
4874.023438	-107.344704
4875.000000	-107.812004
4875.976562	-107.687454
4876.953125	-107.920280
4877.929688	-108.389816
4878.906250	-107.638023
4879.882812	-107.674706
4880.859375	-107.256248
4881.835938	-107.951126
4882.812500	-107.798462
4883.789062	-107.802734
4884.765625	-106.848808
4885.742188	-107.177582
4886.718750	-107.309486
4887.695312	-107.502251
4888.671875	-107.377525
4889.648438	-107.293083
4890.625000	-107.137444
4891.601562	-107.201355
4892.578125	-107.326645
4893.554688	-107.166962
4894.531250	-107.406197
4895.507812	-107.181213
4896.484375	-107.232025
4897.460938	-106.824585
4898.437500	-107.123749
4899.414062	-106.556366
4900.390625	-107.190025
4901.367188	-107.882195
4902.343750	-106.658134
4903.320312	-106.960838
4904.296875	-107.200829
4905.273438	-107.679001
4906.250000	-106.244308
4907.226562	-107.370560
4908.203125	-107.327110
4909.179688	-106.954872
4910.156250	-107.523415
4911.132812	-107.147339
4912.109375	-106.794098
4913.085938	-105.914131
4914.062500	-107.388763
4915.039062	-106.816315
4916.015625	-107.052101
4916.992188	-107.116959
4917.968750	-107.907501
4918.945312	-107.615799
4919.921875	-107.603958
4920.898438	-107.370903
4921.875000	-107.417831
4922.851562	-107.351143
4923.828125	-106.242508
4924.804688	-107.420944
4925.781250	-107.704308
4926.757812	-107.821884
4927.734375	-107.767059
4928.710938	-107.872856
4929.687500	-107.655739
4930.664062	-107.375389
4931.640625	-107.825638
4932.617188	-107.420425
4933.593750	-107.766090
4934.570312	-108.443069
4935.546875	-107.612137
4936.523438	-107.646942
4937.500000	-107.424568
4938.476562	-107.503761
4939.453125	-108.648163
4940.429688	-107.504280
4941.406250	-107.951157
4942.382812	-107.752098
4943.359375	-107.965157
4944.335938	-107.901749
4945.312500	-108.386719
4946.289062	-108.992859
4947.265625	-109.166252
4948.242188	-107.877068
4949.218750	-108.644043
4950.195312	-108.440674
4951.171875	-108.378372
4952.148438	-108.917465
4953.125000	-108.536278
4954.101562	-108.980431
4955.078125	-109.379097
4956.054688	-108.371078
4957.031250	-109.290619
4958.007812	-110.486115
4958.984375	-109.129356
4959.960938	-109.216652
4960.937500	-109.487602
4961.914062	-108.644234
4962.890625	-109.126312
4963.867188	-109.712547
4964.843750	-109.149445
4965.820312	-109.910973
4966.796875	-110.032021
4967.773438	-110.661667
4968.750000	-109.609154
4969.726562	-110.080528
4970.703125	-110.704018
4971.679688	-110.133560
4972.656250	-110.341316
4973.632812	-110.300797
4974.609375	-110.458755
4975.585938	-110.649246
4976.562500	-109.660454
4977.539062	-110.601990
4978.515625	-110.890823
4979.492188	-110.371819
4980.468750	-111.054756
4981.445312	-110.969200
4982.421875	-111.661400
4983.398438	-111.916016
4984.375000	-111.384285
4985.351562	-111.186066
4986.328125	-111.407043
4987.304688	-111.060081
4988.281250	-112.035881
4989.257812	-111.181969
4990.234375	-110.903419
4991.210938	-110.775269
4992.187500	-111.960365
4993.164062	-111.275871
4994.140625	-111.491356
4995.117188	-111.132523
4996.093750	-111.021866
4997.070312	-111.116684
4998.046875	-111.688148
4999.023438	-111.220139
5000.000000	-111.601112
5000.976562	-111.721367
5001.953125	-110.926933
5002.929688	-111.374619
5003.906250	-111.560371
5004.882812	-111.019707
5005.859375	-111.739975
5006.835938	-111.734383
5007.812500	-110.951698
5008.789062	-110.877655
5009.765625	-111.213242
5010.742188	-111.578972
5011.718750	-110.960754
5012.695312	-111.041512
5013.671875	-111.364059
5014.648438	-111.317986
5015.625000	-111.605171
5016.601562	-110.905502
5017.578125	-111.401176
5018.554688	-111.304077
5019.531250	-110.488403
5020.507812	-111.305550
5021.484375	-111.398361
5022.460938	-111.069366
5023.437500	-111.455276
5024.414062	-110.919197
5025.390625	-111.768898
5026.367188	-111.375175
5027.343750	-110.945969
5028.320312	-111.675591
5029.296875	-111.170982
5030.273438	-111.528976
5031.250000	-111.338081
5032.226562	-111.123985
5033.203125	-111.709396
5034.179688	-111.026268
5035.156250	-110.475960
5036.132812	-110.788582
5037.109375	-111.730736
5038.085938	-111.404999
5039.062500	-111.133293
5040.039062	-111.737091
5041.015625	-110.851349
5041.992188	-111.608597
5042.968750	-111.157166
5043.945312	-111.760101
5044.921875	-111.073601
5045.898438	-111.094803
5046.875000	-110.727211
5047.851562	-111.349808
5048.828125	-111.038605
5049.804688	-111.373405
5050.781250	-111.334557
5051.757812	-111.173607
5052.734375	-111.408829
5053.710938	-111.625923
5054.687500	-111.401909
5055.664062	-111.064896
5056.640625	-111.339531
5057.617188	-111.146271
5058.593750	-111.275810
5059.570312	-111.413177
5060.546875	-110.905052
5061.523438	-111.903084
5062.500000	-110.971260
5063.476562	-110.880455
5064.453125	-112.414017
5065.429688	-111.537804
5066.406250	-111.669258
5067.382812	-111.998184
5068.359375	-111.195503
5069.335938	-111.066299
5070.312500	-111.045349
5071.289062	-112.145821
5072.265625	-111.061348
5073.242188	-111.945786
5074.218750	-112.120850
5075.195312	-111.744423
5076.171875	-111.816467
5077.148438	-111.509293
5078.125000	-111.914703
5079.101562	-111.603943
5080.078125	-111.791641
5081.054688	-112.014290
5082.031250	-111.448738
5083.007812	-111.482025
5083.984375	-111.686333
5084.960938	-111.763519
5085.937500	-111.503700
5086.914062	-111.385429
5087.890625	-112.029045
5088.867188	-111.899857
5089.843750	-111.890160
5090.820312	-111.435226
5091.796875	-111.499870
5092.773438	-111.635994
5093.750000	-112.032440
5094.726562	-111.585983
5095.703125	-111.750298
5096.679688	-111.501434
5097.656250	-111.804688
5098.632812	-112.170410
5099.609375	-111.648506
5100.585938	-112.308350
5101.562500	-112.011047
5102.539062	-113.013474
5103.515625	-111.389366
5104.492188	-111.604210
5105.468750	-112.365540
5106.445312	-112.066872
5107.421875	-111.980492
5108.398438	-111.621063
5109.375000	-112.006027
5110.351562	-112.086418
5111.328125	-111.623741
5112.304688	-111.240150
5113.281250	-112.124001
5114.257812	-112.117096
5115.234375	-111.805244
5116.210938	-111.950706
5117.187500	-111.326874
5118.164062	-111.768654
5119.140625	-110.926186
5120.117188	-112.002365
5121.093750	-111.111267
5122.070312	-111.848175
5123.046875	-112.578568
5124.023438	-111.758018
5125.000000	-111.097977
5125.976562	-111.418114
5126.953125	-111.289070
5127.929688	-111.679718
5128.906250	-111.150406
5129.882812	-111.302971
5130.859375	-110.717140
5131.835938	-112.097435
5132.812500	-112.141296
5133.789062	-111.033394
5134.765625	-111.905518
5135.742188	-110.893723
5136.718750	-111.346260
5137.695312	-111.451340
5138.671875	-111.530075
5139.648438	-111.732826
5140.625000	-111.487305
5141.601562	-111.300613
5142.578125	-111.365097
5143.554688	-112.263763
5144.531250	-111.299828
5145.507812	-111.206665
5146.484375	-111.444801
5147.460938	-112.047691
5148.437500	-111.597801
5149.414062	-111.925705
5150.390625	-111.581024
5151.367188	-111.588440
5152.343750	-111.852867
5153.320312	-111.484467
5154.296875	-112.209702
5155.273438	-111.697693
5156.250000	-112.007652
5157.226562	-110.469765
5158.203125	-111.477036
5159.179688	-111.861275
5160.156250	-111.788597
5161.132812	-111.803841
5162.109375	-111.282211
5163.085938	-111.620125
5164.062500	-111.412766
5165.039062	-111.584427
5166.015625	-111.734406
5166.992188	-111.636803
5167.968750	-111.670364
5168.945312	-111.409294
5169.921875	-111.850548
5170.898438	-111.647049
5171.875000	-111.637589
5172.851562	-110.818542
5173.828125	-110.943398
5174.804688	-112.156425
5175.781250	-111.107323
5176.757812	-111.779144
5177.734375	-111.906754
5178.710938	-111.851440
5179.687500	-111.996147
5180.664062	-112.021233
5181.640625	-111.929367
5182.617188	-112.307625
5183.593750	-111.236816
5184.570312	-111.807060
5185.546875	-111.932205
5186.523438	-111.382607
5187.500000	-111.954918
5188.476562	-111.936981
5189.453125	-111.830193
5190.429688	-112.265411
5191.406250	-111.837601
5192.382812	-111.581337
5193.359375	-111.067146
5194.335938	-111.661499
5195.312500	-112.210701
5196.289062	-112.203979
5197.265625	-112.129623
5198.242188	-112.538887
5199.218750	-111.720497
5200.195312	-111.965294
5201.171875	-111.692833
5202.148438	-112.238495
5203.125000	-112.138611
5204.101562	-112.152351
5205.078125	-111.753479
5206.054688	-111.937386
5207.031250	-111.972359
5208.007812	-112.192596
5208.984375	-111.874825
5209.960938	-111.673965
5210.937500	-111.563011
5211.914062	-111.321136
5212.890625	-112.212631
5213.867188	-111.747856
5214.843750	-112.842529
5215.820312	-111.975708
5216.796875	-111.352859
5217.773438	-111.458412
5218.750000	-112.288132
5219.726562	-111.707481
5220.703125	-111.866035
5221.679688	-112.151329
5222.656250	-112.520882
5223.632812	-112.656433
5224.609375	-111.659691
5225.585938	-111.455696
5226.562500	-111.442902
5227.539062	-111.998802
5228.515625	-111.675095
5229.492188	-111.367081
5230.468750	-111.558655
5231.445312	-112.050575
5232.421875	-111.674881
5233.398438	-111.804382
5234.375000	-112.046204
5235.351562	-111.701118
5236.328125	-111.809547
5237.304688	-111.956772
5238.281250	-111.785950
5239.257812	-111.699753
5240.234375	-111.673340
5241.210938	-112.301750
5242.187500	-112.029152
5243.164062	-111.251503
5244.140625	-112.517799
5245.117188	-111.955185
5246.093750	-111.856850
5247.070312	-112.381485
5248.046875	-111.595390
5249.023438	-111.808884
5250.000000	-112.348030
5250.976562	-112.455048
5251.953125	-111.181847
5252.929688	-111.229736
5253.906250	-112.487335
5254.882812	-111.550385
5255.859375	-112.168648
5256.835938	-112.242439
5257.812500	-111.937576
5258.789062	-111.007446
5259.765625	-112.005295
5260.742188	-112.041985
5261.718750	-112.385094
5262.695312	-111.533195
5263.671875	-111.049210
5264.648438	-111.245888
5265.625000	-111.682793
5266.601562	-111.602249
5267.578125	-112.088905
5268.554688	-111.594666
5269.531250	-111.999985
5270.507812	-111.481148
5271.484375	-111.923996
5272.460938	-112.064796
5273.437500	-111.775475
5274.414062	-111.252884
5275.390625	-112.324661
5276.367188	-111.715134
5277.343750	-111.445930
5278.320312	-112.307327
5279.296875	-112.131844
5280.273438	-112.143219
5281.250000	-112.563370
5282.226562	-112.417412
5283.203125	-111.650688
5284.179688	-111.761154
5285.156250	-111.693398
5286.132812	-111.485367
5287.109375	-112.360260
5288.085938	-111.404480
5289.062500	-111.934563
5290.039062	-110.900436
5291.015625	-111.612167
5291.992188	-111.738571
5292.968750	-111.924133
5293.945312	-111.372330
5294.921875	-111.838867
5295.898438	-111.878990
5296.875000	-111.532944
5297.851562	-112.257408
5298.828125	-111.499809
5299.804688	-112.074768
5300.781250	-111.536346
5301.757812	-112.390175
5302.734375	-112.013687
5303.710938	-111.781868
5304.687500	-111.576004
5305.664062	-112.222923
5306.640625	-112.062607
5307.617188	-111.866066
5308.593750	-112.189415
5309.570312	-111.445068
5310.546875	-111.666595
5311.523438	-112.030533
5312.500000	-112.190651
5313.476562	-111.745804
5314.453125	-111.975815
5315.429688	-112.465347
5316.406250	-111.913887
5317.382812	-111.685959
5318.359375	-112.261848
5319.335938	-112.309425
5320.312500	-112.371620
5321.289062	-112.298943
5322.265625	-112.068092
5323.242188	-111.892433
5324.218750	-112.253143
5325.195312	-111.832153
5326.171875	-111.843590
5327.148438	-111.734047
5328.125000	-111.945450
5329.101562	-111.801903
5330.078125	-111.984497
5331.054688	-111.931610
5332.031250	-112.138557
5333.007812	-112.257278
5333.984375	-113.156517
5334.960938	-112.358017
5335.937500	-112.700775
5336.914062	-112.173172
5337.890625	-111.783318
5338.867188	-112.596130
5339.843750	-111.958969
5340.820312	-111.650536
5341.796875	-111.950676
5342.773438	-112.543732
5343.750000	-112.403397
5344.726562	-111.934914
5345.703125	-111.942177
5346.679688	-112.221573
5347.656250	-112.215309
5348.632812	-111.802467
5349.609375	-112.311836
5350.585938	-112.148766
5351.562500	-112.286880
5352.539062	-112.325478
5353.515625	-111.940529
5354.492188	-112.602745
5355.468750	-111.831711
5356.445312	-112.144699
5357.421875	-112.221741
5358.398438	-112.746124
5359.375000	-112.606873
5360.351562	-112.363998
5361.328125	-111.668571
5362.304688	-112.344368
5363.281250	-112.593269
5364.257812	-112.352745
5365.234375	-112.608147
5366.210938	-112.005188
5367.187500	-111.790825
5368.164062	-112.821152
5369.140625	-112.465454
5370.117188	-111.762482
5371.093750	-112.159248
5372.070312	-112.555046
5373.046875	-111.492706
5374.023438	-112.143410
5375.000000	-112.095947
5375.976562	-111.948097
5376.953125	-112.792313
5377.929688	-112.259857
5378.906250	-112.025604
5379.882812	-112.349258
5380.859375	-111.596901
5381.835938	-111.838188
5382.812500	-112.029381
5383.789062	-112.536682
5384.765625	-111.812225
5385.742188	-111.911270
5386.718750	-112.471535
5387.695312	-111.648567
5388.671875	-111.969101
5389.648438	-112.265411
5390.625000	-111.946114
5391.601562	-111.836815
5392.578125	-112.234467
5393.554688	-111.959724
5394.531250	-111.721291
5395.507812	-112.033409
5396.484375	-112.541389
5397.460938	-111.645454
5398.437500	-112.038292
5399.414062	-112.728241
5400.390625	-111.886726
5401.367188	-112.640320
5402.343750	-111.851051
5403.320312	-112.393005
5404.296875	-112.299042
5405.273438	-112.522026
5406.250000	-111.778191
5407.226562	-112.496384
5408.203125	-112.336021
5409.179688	-112.499474
5410.156250	-111.770882
5411.132812	-112.016586
5412.109375	-112.012115
5413.085938	-111.632919
5414.062500	-112.693993
5415.039062	-112.420654
5416.015625	-112.537430
5416.992188	-111.980232
5417.968750	-112.205276
5418.945312	-112.188736
5419.921875	-112.400887
5420.898438	-112.620224
5421.875000	-112.297997
5422.851562	-111.866524
5423.828125	-112.051598
5424.804688	-112.118965
5425.781250	-112.494400
5426.757812	-112.719772
5427.734375	-111.916092
5428.710938	-112.939629
5429.687500	-112.081093
5430.664062	-111.702187
5431.640625	-112.582329
5432.617188	-112.105659
5433.593750	-112.378868
5434.570312	-111.797745
5435.546875	-111.757835
5436.523438	-112.360924
5437.500000	-112.463722
5438.476562	-111.606117
5439.453125	-112.654121
5440.429688	-112.298653
5441.406250	-112.208916
5442.382812	-111.807503
5443.359375	-112.154678
5444.335938	-112.606995
5445.312500	-111.926331
5446.289062	-113.034332
5447.265625	-112.168884
5448.242188	-111.919884
5449.218750	-112.096268
5450.195312	-112.013123
5451.171875	-111.579750
5452.148438	-112.926186
5453.125000	-111.869453
5454.101562	-112.129715
5455.078125	-112.004356
5456.054688	-112.091797
5457.031250	-111.812477
5458.007812	-112.416695
5458.984375	-112.415329
5459.960938	-112.730019
5460.937500	-112.718002
5461.914062	-112.575890
5462.890625	-112.333488
5463.867188	-112.641037
5464.843750	-111.781769
5465.820312	-111.758545
5466.796875	-111.980347
5467.773438	-112.079399
5468.750000	-111.429703
5469.726562	-112.145790
5470.703125	-112.779625
5471.679688	-112.509796
5472.656250	-111.288330
5473.632812	-112.413811
5474.609375	-111.998947
5475.585938	-112.172195
5476.562500	-112.448784
5477.539062	-111.488258
5478.515625	-112.142052
5479.492188	-112.360100
5480.468750	-112.019989
5481.445312	-112.364967
5482.421875	-112.114075
5483.398438	-112.627289
5484.375000	-112.014000
5485.351562	-112.289421
5486.328125	-112.182693
5487.304688	-112.131081
5488.281250	-113.002571
5489.257812	-112.566788
5490.234375	-112.173965
5491.210938	-112.325142
5492.187500	-112.713242
5493.164062	-113.039993
5494.140625	-111.468445
5495.117188	-111.309883
5496.093750	-112.244423
5497.070312	-112.595375
5498.046875	-111.932938
5499.023438	-112.455956
5500.000000	-112.381302
5500.976562	-111.764740
5501.953125	-112.293053
5502.929688	-111.977982
5503.906250	-112.198845
5504.882812	-111.553078
5505.859375	-112.725380
5506.835938	-112.094162
5507.812500	-113.022820
5508.789062	-112.686432
5509.765625	-112.002220
5510.742188	-112.121841
5511.718750	-111.898445
5512.695312	-112.337700
5513.671875	-112.356941
5514.648438	-112.387871
5515.625000	-111.734207
5516.601562	-112.043282
5517.578125	-112.393562
5518.554688	-112.156853
5519.531250	-112.643784
5520.507812	-112.318138
5521.484375	-112.213120
5522.460938	-112.573051
5523.437500	-113.546669
5524.414062	-112.431969
5525.390625	-111.966293
5526.367188	-112.105820
5527.343750	-112.829056
5528.320312	-111.795494
5529.296875	-112.430389
5530.273438	-112.171318
5531.250000	-111.823219
5532.226562	-112.326851
5533.203125	-111.998955
5534.179688	-111.614655
5535.156250	-112.555496
5536.132812	-112.710159
5537.109375	-111.568062
5538.085938	-112.059662
5539.062500	-111.836617
5540.039062	-112.117661
5541.015625	-111.593430
5541.992188	-111.729446
5542.968750	-112.596962
5543.945312	-111.876076
5544.921875	-112.924599
5545.898438	-111.909111
5546.875000	-112.422928
5547.851562	-112.181686
5548.828125	-112.175018
5549.804688	-111.761803
5550.781250	-111.861717
5551.757812	-112.099739
5552.734375	-112.502045
5553.710938	-112.722641
5554.687500	-112.113884
5555.664062	-112.412659
5556.640625	-112.728111
5557.617188	-111.777489
5558.593750	-111.963188
5559.570312	-112.090324
5560.546875	-112.597427
5561.523438	-112.914711
5562.500000	-112.048927
5563.476562	-112.412407
5564.453125	-113.122643
5565.429688	-112.854874
5566.406250	-112.161880
5567.382812	-111.393570
5568.359375	-112.380180
5569.335938	-111.848663
5570.312500	-112.569618
5571.289062	-112.410179
5572.265625	-112.586899
5573.242188	-112.590309
5574.218750	-112.540016
5575.195312	-112.670532
5576.171875	-112.311775
5577.148438	-112.384613
5578.125000	-112.683182
5579.101562	-112.075996
5580.078125	-111.866692
5581.054688	-112.349571
5582.031250	-112.424995
5583.007812	-112.188065
5583.984375	-112.632065
5584.960938	-112.930397
5585.937500	-112.656700
5586.914062	-112.696175
5587.890625	-112.781364
5588.867188	-112.661102
5589.843750	-112.140816
5590.820312	-112.067451
5591.796875	-112.152573
5592.773438	-111.944397
5593.750000	-112.447350
5594.726562	-112.300133
5595.703125	-112.693367
5596.679688	-111.863869
5597.656250	-112.980858
5598.632812	-112.557449
5599.609375	-113.332626
5600.585938	-112.521622
5601.562500	-112.838196
5602.539062	-112.106689
5603.515625	-111.960701
5604.492188	-112.440437
5605.468750	-112.864494
5606.445312	-112.438950
5607.421875	-112.594154
5608.398438	-112.300934
5609.375000	-112.377640
5610.351562	-112.675491
5611.328125	-112.816414
5612.304688	-112.445595
5613.281250	-112.192291
5614.257812	-112.872269
5615.234375	-112.735718
5616.210938	-112.479790
5617.187500	-112.443390
5618.164062	-112.384781
5619.140625	-112.611252
5620.117188	-112.538681
5621.093750	-112.367363
5622.070312	-112.408470
5623.046875	-112.389725
5624.023438	-113.049225
5625.000000	-112.600082
5625.976562	-112.470596
5626.953125	-112.120750
5627.929688	-112.253822
5628.906250	-112.808342
5629.882812	-112.302094
5630.859375	-112.919945
5631.835938	-112.124748
5632.812500	-111.982506
5633.789062	-112.482544
5634.765625	-112.200752
5635.742188	-112.661034
5636.718750	-112.495369
5637.695312	-112.293510
5638.671875	-112.868271
5639.648438	-112.908249
5640.625000	-112.415642
5641.601562	-112.496971
5642.578125	-112.287231
5643.554688	-111.538712
5644.531250	-112.369209
5645.507812	-111.927963
5646.484375	-112.161034
5647.460938	-111.976173
5648.437500	-111.938499
5649.414062	-112.470558
5650.390625	-112.387741
5651.367188	-111.995667
5652.343750	-112.361244
5653.320312	-112.619865
5654.296875	-111.937660
5655.273438	-112.139404
5656.250000	-112.728027
5657.226562	-112.780632
5658.203125	-112.949631
5659.179688	-112.613037
5660.156250	-112.546860
5661.132812	-113.369652
5662.109375	-112.211273
5663.085938	-112.157990
5664.062500	-112.324432
5665.039062	-112.238777
5666.015625	-111.663834
5666.992188	-112.246048
5667.968750	-112.658859
5668.945312	-112.525963
5669.921875	-112.677498
5670.898438	-113.262390
5671.875000	-112.266281
5672.851562	-112.133972
5673.828125	-112.608345
5674.804688	-112.657104
5675.781250	-112.322021
5676.757812	-112.403137
5677.734375	-112.436142
5678.710938	-112.170319
5679.687500	-111.881660
5680.664062	-113.019516
5681.640625	-112.284615
5682.617188	-112.234337
5683.593750	-112.131851
5684.570312	-112.456444
5685.546875	-113.065697
5686.523438	-112.700378
5687.500000	-112.386314
5688.476562	-112.958168
5689.453125	-112.277290
5690.429688	-112.738792
5691.406250	-112.949516
5692.382812	-112.754776
5693.359375	-112.807877
5694.335938	-112.370987
5695.312500	-111.510651
5696.289062	-112.597130
5697.265625	-112.468872
5698.242188	-112.295494
5699.218750	-112.311394
5700.195312	-112.846375
5701.171875	-112.682373
5702.148438	-113.016937
5703.125000	-112.403809
5704.101562	-112.699745
5705.078125	-112.463921
5706.054688	-112.364799
5707.031250	-112.579056
5708.007812	-112.229103
5708.984375	-111.700806
5709.960938	-112.421707
5710.937500	-111.785172
5711.914062	-112.445068
5712.890625	-111.481071
5713.867188	-112.439507
5714.843750	-112.349121
5715.820312	-112.067039
5716.796875	-112.469368
5717.773438	-112.767181
5718.750000	-112.489517
5719.726562	-111.978691
5720.703125	-111.999924
5721.679688	-112.884300
5722.656250	-112.041664
5723.632812	-113.107147
5724.609375	-112.010925
5725.585938	-111.961197
5726.562500	-112.384537
5727.539062	-113.194817
5728.515625	-113.439812
5729.492188	-113.045380
5730.468750	-111.793571
5731.445312	-112.263054
5732.421875	-112.201241
5733.398438	-112.130135
5734.375000	-112.867027
5735.351562	-112.214203
5736.328125	-112.616776
5737.304688	-112.237320
5738.281250	-112.432480
5739.257812	-112.295425
5740.234375	-112.217651
5741.210938	-112.304214
5742.187500	-111.663872
5743.164062	-113.113831
5744.140625	-112.564453
5745.117188	-111.881813
5746.093750	-112.275146
5747.070312	-112.971489
5748.046875	-111.980164
5749.023438	-111.209106
5750.000000	-112.139648
5750.976562	-111.923454
5751.953125	-112.332863
5752.929688	-111.884956
5753.906250	-112.860275
5754.882812	-112.573502
5755.859375	-112.114174
5756.835938	-112.177124
5757.812500	-112.214844
5758.789062	-112.420517
5759.765625	-111.849083
5760.742188	-112.132088
5761.718750	-112.881477
5762.695312	-112.376877
5763.671875	-112.332321
5764.648438	-111.806213
5765.625000	-112.281006
5766.601562	-111.883972
5767.578125	-112.975967
5768.554688	-112.605675
5769.531250	-112.136108
5770.507812	-111.778481
5771.484375	-112.730492
5772.460938	-112.866180
5773.437500	-112.759773
5774.414062	-112.300507
5775.390625	-112.477287
5776.367188	-112.482353
5777.343750	-112.651802
5778.320312	-112.068199
5779.296875	-111.853157
5780.273438	-112.194275
5781.250000	-112.721115
5782.226562	-112.762955
5783.203125	-112.603165
5784.179688	-112.335030
5785.156250	-112.474205
5786.132812	-112.740021
5787.109375	-112.347748
5788.085938	-112.010155
5789.062500	-113.302917
5790.039062	-112.862259
5791.015625	-113.016640
5791.992188	-112.745522
5792.968750	-112.190834
5793.945312	-112.192459
5794.921875	-112.187355
5795.898438	-111.836601
5796.875000	-112.690872
5797.851562	-112.344223
5798.828125	-112.410194
5799.804688	-113.037659
5800.781250	-113.137978
5801.757812	-113.039589
5802.734375	-112.727852
5803.710938	-112.391083
5804.687500	-112.654922
5805.664062	-112.623589
5806.640625	-112.549934
5807.617188	-112.266106
5808.593750	-112.392242
5809.570312	-112.268105
5810.546875	-112.862061
5811.523438	-113.258797
5812.500000	-112.142151
5813.476562	-112.089691
5814.453125	-112.755341
5815.429688	-111.969788
5816.406250	-112.382721
5817.382812	-112.233536
5818.359375	-112.293808
5819.335938	-112.556778
5820.312500	-112.724030
5821.289062	-112.456276
5822.265625	-111.398521
5823.242188	-112.915344
5824.218750	-112.700294
5825.195312	-112.069839
5826.171875	-112.524963
5827.148438	-112.535950
5828.125000	-111.841270
5829.101562	-112.354401
5830.078125	-112.660789
5831.054688	-112.684174
5832.031250	-112.089516
5833.007812	-111.902100
5833.984375	-112.253937
5834.960938	-111.641068
5835.937500	-112.459961
5836.914062	-112.273445
5837.890625	-112.832848
5838.867188	-113.049194
5839.843750	-112.144348
5840.820312	-112.409592
5841.796875	-112.158829
5842.773438	-111.840469
5843.750000	-112.393066
5844.726562	-112.210190
5845.703125	-112.836685
5846.679688	-112.327477
5847.656250	-112.287460
5848.632812	-112.199150
5849.609375	-112.283829
5850.585938	-112.236519
5851.562500	-112.935532
5852.539062	-112.360397
5853.515625	-112.034286
5854.492188	-112.550102
5855.468750	-113.167679
5856.445312	-113.166054
5857.421875	-112.196243
5858.398438	-113.026382
5859.375000	-112.450432
5860.351562	-112.797043
5861.328125	-113.090446
5862.304688	-112.707367
5863.281250	-112.477669
5864.257812	-112.666313
5865.234375	-112.736427
5866.210938	-112.805183
5867.187500	-112.964310
5868.164062	-112.576065
5869.140625	-112.440674
5870.117188	-112.101341
5871.093750	-112.037354
5872.070312	-112.181412
5873.046875	-112.169624
5874.023438	-112.661057
5875.000000	-112.023003
5875.976562	-112.263138
5876.953125	-112.607033
5877.929688	-112.842407
5878.906250	-112.629204
5879.882812	-112.336739
5880.859375	-112.504448
5881.835938	-112.768845
5882.812500	-112.826271
5883.789062	-112.797523
5884.765625	-112.821136
5885.742188	-112.584076
5886.718750	-112.381187
5887.695312	-112.198433
5888.671875	-112.631203
5889.648438	-112.967186
5890.625000	-111.851334
5891.601562	-112.384399
5892.578125	-112.758224
5893.554688	-112.380508
5894.531250	-112.709534
5895.507812	-112.368729
5896.484375	-112.245514
5897.460938	-113.238770
5898.437500	-112.439079
5899.414062	-112.912590
5900.390625	-113.404472
5901.367188	-112.262756
5902.343750	-112.871300
5903.320312	-112.773956
5904.296875	-113.004776
5905.273438	-112.764038
5906.250000	-112.882439
5907.226562	-112.114212
5908.203125	-112.666313
5909.179688	-112.577370
5910.156250	-112.109200
5911.132812	-112.424805
5912.109375	-112.289307
5913.085938	-113.148643
5914.062500	-112.729370
5915.039062	-112.645622
5916.015625	-112.425003
5916.992188	-112.661102
5917.968750	-112.933945
5918.945312	-112.728409
5919.921875	-112.481865
5920.898438	-112.313156
5921.875000	-113.134567
5922.851562	-113.186920
5923.828125	-112.763908
5924.804688	-112.573143
5925.781250	-112.735992
5926.757812	-112.132698
5927.734375	-111.736343
5928.710938	-112.852119
5929.687500	-112.496811
5930.664062	-112.838867
5931.640625	-112.658882
5932.617188	-112.881523
5933.593750	-113.201363
5934.570312	-113.187737
5935.546875	-113.100746
5936.523438	-112.713371
5937.500000	-112.262047
5938.476562	-112.429779
5939.453125	-112.451057
5940.429688	-112.472137
5941.406250	-113.019295
5942.382812	-113.033813
5943.359375	-112.910149
5944.335938	-113.203346
5945.312500	-112.858574
5946.289062	-113.069420
5947.265625	-112.772522
5948.242188	-112.409912
5949.218750	-113.159752
5950.195312	-113.226128
5951.171875	-112.600700
5952.148438	-112.717499
5953.125000	-112.811050
5954.101562	-112.303963
5955.078125	-112.866425
5956.054688	-112.118095
5957.031250	-112.481812
5958.007812	-112.577553
5958.984375	-112.664154
5959.960938	-112.711784
5960.937500	-112.229813
5961.914062	-112.186470
5962.890625	-112.441971
5963.867188	-113.389793
5964.843750	-112.890160
5965.820312	-112.396492
5966.796875	-113.493881
5967.773438	-112.665176
5968.750000	-112.554688
5969.726562	-112.720673
5970.703125	-111.987061
5971.679688	-112.214539
5972.656250	-112.591118
5973.632812	-112.918144
5974.609375	-113.299713
5975.585938	-112.485634
5976.562500	-113.213829
5977.539062	-112.679024
5978.515625	-113.078972
5979.492188	-112.951714
5980.468750	-112.333878
5981.445312	-113.148651
5982.421875	-112.274849
5983.398438	-112.468605
5984.375000	-112.510811
5985.351562	-112.643555
5986.328125	-113.337502
5987.304688	-112.469429
5988.281250	-112.579605
5989.257812	-112.729042
5990.234375	-112.393745
5991.210938	-113.168556
5992.187500	-112.901093
5993.164062	-112.644852
5994.140625	-112.550621
5995.117188	-112.929665
5996.093750	-112.708176
5997.070312	-112.408752
5998.046875	-112.221947
5999.023438	-112.337433
6000.000000	-112.726707
6000.976562	-112.829216
6001.953125	-113.089561
6002.929688	-112.454636
6003.906250	-113.362694
6004.882812	-112.219681
6005.859375	-113.069084
6006.835938	-112.494835
6007.812500	-113.250526
6008.789062	-112.488808
6009.765625	-111.783127
6010.742188	-112.009392
6011.718750	-112.719887
6012.695312	-112.080956
6013.671875	-112.328049
6014.648438	-113.137001
6015.625000	-112.373253
6016.601562	-112.835533
6017.578125	-112.710297
6018.554688	-112.178185
6019.531250	-112.254852
6020.507812	-112.415947
6021.484375	-112.896896
6022.460938	-112.593803
6023.437500	-112.748901
6024.414062	-112.558006
6025.390625	-111.935272
6026.367188	-112.304184
6027.343750	-112.576820
6028.320312	-112.456856
6029.296875	-112.786972
6030.273438	-112.623581
6031.250000	-112.365791
6032.226562	-112.770256
6033.203125	-112.624664
6034.179688	-112.742027
6035.156250	-112.497818
6036.132812	-112.978859
6037.109375	-112.519981
6038.085938	-112.306999
6039.062500	-112.330452
6040.039062	-112.195869
6041.015625	-112.237885
6041.992188	-112.299644
6042.968750	-112.158028
6043.945312	-112.516052
6044.921875	-112.091057
6045.898438	-112.658936
6046.875000	-112.834160
6047.851562	-112.478554
6048.828125	-112.254471
6049.804688	-112.334229
6050.781250	-112.253769
6051.757812	-111.877640
6052.734375	-112.706139
6053.710938	-111.731781
6054.687500	-112.224594
6055.664062	-112.027412
6056.640625	-111.798813
6057.617188	-111.786148
6058.593750	-112.172150
6059.570312	-111.535210
6060.546875	-111.700844
6061.523438	-111.837631
6062.500000	-112.220062
6063.476562	-112.376122
6064.453125	-112.380753
6065.429688	-111.969620
6066.406250	-112.391869
6067.382812	-111.930626
6068.359375	-112.028511
6069.335938	-112.068489
6070.312500	-112.122742
6071.289062	-111.897575
6072.265625	-111.627792
6073.242188	-111.701447
6074.218750	-112.053070
6075.195312	-112.210045
6076.171875	-112.287354
6077.148438	-111.325836
6078.125000	-111.201225
6079.101562	-111.986092
6080.078125	-111.578728
6081.054688	-111.656174
6082.031250	-111.109505
6083.007812	-111.839523
6083.984375	-111.787918
6084.960938	-111.060432
6085.937500	-111.629990
6086.914062	-111.671234
6087.890625	-111.523819
6088.867188	-111.687500
6089.843750	-111.922920
6090.820312	-111.398224
6091.796875	-111.626282
6092.773438	-112.017448
6093.750000	-111.607346
6094.726562	-110.772362
6095.703125	-111.262901
6096.679688	-111.608566
6097.656250	-111.180397
6098.632812	-111.911415
6099.609375	-110.910980
6100.585938	-111.576416
6101.562500	-111.348381
6102.539062	-111.560341
6103.515625	-111.262260
6104.492188	-111.078506
6105.468750	-111.596031
6106.445312	-111.351456
6107.421875	-111.192123
6108.398438	-111.063133
6109.375000	-110.592323
6110.351562	-111.167885
6111.328125	-110.858299
6112.304688	-110.331909
6113.281250	-110.702667
6114.257812	-110.765877
6115.234375	-111.035233
6116.210938	-111.256111
6117.187500	-110.869133
6118.164062	-110.671738
6119.140625	-111.044945
6120.117188	-110.942055
6121.093750	-110.798210
6122.070312	-110.544785
6123.046875	-110.575935
6124.023438	-111.076096
6125.000000	-110.433273
6125.976562	-110.458939
6126.953125	-110.575043
6127.929688	-110.608170
6128.906250	-110.792915
6129.882812	-110.286087
6130.859375	-110.763664
6131.835938	-110.294937
6132.812500	-110.766579
6133.789062	-110.039497
6134.765625	-109.832123
6135.742188	-110.837387
6136.718750	-110.436462
6137.695312	-109.421989
6138.671875	-109.625427
6139.648438	-109.643417
6140.625000	-110.453178
6141.601562	-110.376564
6142.578125	-109.853661
6143.554688	-109.888969
6144.531250	-109.804062
6145.507812	-109.681862
6146.484375	-110.103210
6147.460938	-109.656601
6148.437500	-109.573181
6149.414062	-110.068672
6150.390625	-110.415985
6151.367188	-110.654213
6152.343750	-110.245537
6153.320312	-110.003731
6154.296875	-109.873299
6155.273438	-109.546860
6156.250000	-109.561546
6157.226562	-109.791687
6158.203125	-110.507088
6159.179688	-110.433723
6160.156250	-110.286316
6161.132812	-109.577721
6162.109375	-109.805481
6163.085938	-109.971832
6164.062500	-110.518524
6165.039062	-110.619850
6166.015625	-110.006699
6166.992188	-110.560135
6167.968750	-110.016647
6168.945312	-110.472206
6169.921875	-110.721962
6170.898438	-109.930183
6171.875000	-109.659042
6172.851562	-110.239281
6173.828125	-110.287804
6174.804688	-109.709213
6175.781250	-109.832870
6176.757812	-110.109657
6177.734375	-110.610596
6178.710938	-110.610008
6179.687500	-110.201935
6180.664062	-110.294739
6181.640625	-110.421257
6182.617188	-110.526672
6183.593750	-110.069992
6184.570312	-109.364273
6185.546875	-109.715836
6186.523438	-110.136337
6187.500000	-109.801178
6188.476562	-109.839386
6189.453125	-110.012756
6190.429688	-109.678665
6191.406250	-110.142242
6192.382812	-110.074684
6193.359375	-109.848640
6194.335938	-110.168343
6195.312500	-109.786507
6196.289062	-109.728683
6197.265625	-110.127892
6198.242188	-109.974144
6199.218750	-109.517471
6200.195312	-110.805023
6201.171875	-109.520729
6202.148438	-110.474838
6203.125000	-109.856422
6204.101562	-110.204109
6205.078125	-110.468674
6206.054688	-109.841835
6207.031250	-110.545715
6208.007812	-110.927521
6208.984375	-110.613533
6209.960938	-109.532539
6210.937500	-110.529350
6211.914062	-111.069595
6212.890625	-110.732994
6213.867188	-109.736664
6214.843750	-110.093002
6215.820312	-110.262245
6216.796875	-110.655602
6217.773438	-110.142563
6218.750000	-110.361923
6219.726562	-110.654648
6220.703125	-110.353134
6221.679688	-111.180069
6222.656250	-110.699661
6223.632812	-110.135506
6224.609375	-110.626251
6225.585938	-110.799210
6226.562500	-110.623665
6227.539062	-110.317902
6228.515625	-111.183990
6229.492188	-110.750038
6230.468750	-110.299599
6231.445312	-110.896240
6232.421875	-111.592651
6233.398438	-110.505913
6234.375000	-110.359451
6235.351562	-110.543007
6236.328125	-110.096092
6237.304688	-110.211021
6238.281250	-111.285324
6239.257812	-110.202980
6240.234375	-110.135223
6241.210938	-110.468941
6242.187500	-110.036873
6243.164062	-111.013992
6244.140625	-110.874535
6245.117188	-110.208977
6246.093750	-109.764267
6247.070312	-110.894836
6248.046875	-110.448784
6249.023438	-110.995598
6250.000000	-110.484238
6250.976562	-110.175079
6251.953125	-110.684998
6252.929688	-110.342117
6253.906250	-110.886162
6254.882812	-110.046135
6255.859375	-110.362007
6256.835938	-111.025940
6257.812500	-109.946548
6258.789062	-111.003563
6259.765625	-110.771828
6260.742188	-110.887321
6261.718750	-109.911629
6262.695312	-110.908966
6263.671875	-110.349548
6264.648438	-109.941620
6265.625000	-110.256905
6266.601562	-110.550903
6267.578125	-109.960724
6268.554688	-109.793732
6269.531250	-110.644264
6270.507812	-109.893677
6271.484375	-110.378670
6272.460938	-109.369659
6273.437500	-110.745590
6274.414062	-110.083824
6275.390625	-110.091408
6276.367188	-109.736755
6277.343750	-110.711914
6278.320312	-110.137115
6279.296875	-109.194153
6280.273438	-110.595650
6281.250000	-109.712410
6282.226562	-110.222176
6283.203125	-109.247696
6284.179688	-109.845612
6285.156250	-109.881172
6286.132812	-110.124390
6287.109375	-109.141426
6288.085938	-109.838722
6289.062500	-109.976608
6290.039062	-109.723495
6291.015625	-110.124588
6291.992188	-109.928070
6292.968750	-109.871521
6293.945312	-109.488342
6294.921875	-110.297256
6295.898438	-110.223312
6296.875000	-109.845955
6297.851562	-109.337303
6298.828125	-109.166359
6299.804688	-109.702469
6300.781250	-109.692635
6301.757812	-109.460724
6302.734375	-109.591515
6303.710938	-109.519829
6304.687500	-109.279930
6305.664062	-109.925262
6306.640625	-110.000427
6307.617188	-109.780487
6308.593750	-110.588242
6309.570312	-109.701546
6310.546875	-109.285988
6311.523438	-109.984795
6312.500000	-110.071342
6313.476562	-109.912376
6314.453125	-109.475090
6315.429688	-109.207817
6316.406250	-110.022240
6317.382812	-110.042862
6318.359375	-110.170372
6319.335938	-110.105492
6320.312500	-110.708244
6321.289062	-110.688744
6322.265625	-109.979515
6323.242188	-109.620384
6324.218750	-109.667046
6325.195312	-109.488350
6326.171875	-110.583443
6327.148438	-109.654015
6328.125000	-110.315948
6329.101562	-110.555626
6330.078125	-110.186447
6331.054688	-110.138000
6332.031250	-110.285805
6333.007812	-110.214424
6333.984375	-110.009636
6334.960938	-109.994194
6335.937500	-110.517036
6336.914062	-110.798676
6337.890625	-109.930908
6338.867188	-110.257492
6339.843750	-110.544586
6340.820312	-109.905701
6341.796875	-110.311211
6342.773438	-109.527817
6343.750000	-109.643974
6344.726562	-110.354187
6345.703125	-110.006386
6346.679688	-109.495193
6347.656250	-110.510017
6348.632812	-110.244751
6349.609375	-110.838928
6350.585938	-110.335136
6351.562500	-110.363922
6352.539062	-110.367142
6353.515625	-110.575050
6354.492188	-111.338684
6355.468750	-110.520668
6356.445312	-110.010872
6357.421875	-110.604103
6358.398438	-110.688606
6359.375000	-110.728729
6360.351562	-110.259430
6361.328125	-110.632240
6362.304688	-110.554001
6363.281250	-110.714989
6364.257812	-111.082436
6365.234375	-110.455650
6366.210938	-110.685715
6367.187500	-111.013031
6368.164062	-110.780067
6369.140625	-111.783249
6370.117188	-110.885521
6371.093750	-110.693344
6372.070312	-110.592300
6373.046875	-110.935432
6374.023438	-111.250168
6375.000000	-110.785019
6375.976562	-110.523743
6376.953125	-111.202995
6377.929688	-110.915642
6378.906250	-111.452019
6379.882812	-111.706390
6380.859375	-111.214462
6381.835938	-111.265114
6382.812500	-111.149078
6383.789062	-111.477821
6384.765625	-111.508308
6385.742188	-111.039314
6386.718750	-111.531677
6387.695312	-111.647789
6388.671875	-111.139076
6389.648438	-111.286781
6390.625000	-111.339516
6391.601562	-110.706940
6392.578125	-111.436302
6393.554688	-110.717430
6394.531250	-111.056656
6395.507812	-110.619637
6396.484375	-110.292046
6397.460938	-111.121407
6398.437500	-111.826408
6399.414062	-110.933418
6400.390625	-111.233932
6401.367188	-111.248947
6402.343750	-110.774292
6403.320312	-111.324051
6404.296875	-110.866821
6405.273438	-110.410454
6406.250000	-111.405136
6407.226562	-110.716759
6408.203125	-111.088417
6409.179688	-111.057198
6410.156250	-110.919647
6411.132812	-111.341248
6412.109375	-111.357849
6413.085938	-110.706345
6414.062500	-111.254074
6415.039062	-110.584473
6416.015625	-110.271301
6416.992188	-110.617905
6417.968750	-111.014977
6418.945312	-110.951019
6419.921875	-110.740486
6420.898438	-111.461136
6421.875000	-111.410477
6422.851562	-111.157692
6423.828125	-110.765854
6424.804688	-111.336121
6425.781250	-111.066437
6426.757812	-110.797737
6427.734375	-110.511444
6428.710938	-110.284340
6429.687500	-110.798302
6430.664062	-110.441704
6431.640625	-111.108498
6432.617188	-110.915749
6433.593750	-110.654938
6434.570312	-110.754044
6435.546875	-110.292358
6436.523438	-111.468910
6437.500000	-111.129066
6438.476562	-111.220703
6439.453125	-110.508766
6440.429688	-111.478958
6441.406250	-111.219231
6442.382812	-111.288498
6443.359375	-111.412117
6444.335938	-111.130692
6445.312500	-111.544563
6446.289062	-110.838089
6447.265625	-110.965546
6448.242188	-111.130661
6449.218750	-111.104294
6450.195312	-111.250908
6451.171875	-110.773285
6452.148438	-110.894249
6453.125000	-111.301529
6454.101562	-111.002609
6455.078125	-110.826843
6456.054688	-111.190155
6457.031250	-110.885284
6458.007812	-111.096344
6458.984375	-110.234146
6459.960938	-110.528999
6460.937500	-110.645271
6461.914062	-110.714912
6462.890625	-110.685158
6463.867188	-110.279373
6464.843750	-111.278542
6465.820312	-110.917870
6466.796875	-111.099907
6467.773438	-110.773918
6468.750000	-110.815865
6469.726562	-111.016403
6470.703125	-110.126869
6471.679688	-110.953056
6472.656250	-110.915344
6473.632812	-109.973755
6474.609375	-110.770699
6475.585938	-111.003288
6476.562500	-110.859627
6477.539062	-110.503273
6478.515625	-109.941933
6479.492188	-110.910362
6480.468750	-110.635788
6481.445312	-110.789337
6482.421875	-110.571945
6483.398438	-111.442253
6484.375000	-110.246895
6485.351562	-109.837311
6486.328125	-110.106766
6487.304688	-110.711334
6488.281250	-110.391441
6489.257812	-110.398514
6490.234375	-110.298241
6491.210938	-110.156631
6492.187500	-110.919098
6493.164062	-110.562218
6494.140625	-110.587753
6495.117188	-110.677238
6496.093750	-109.930977
6497.070312	-110.393150
6498.046875	-110.828278
6499.023438	-109.984230
6500.000000	-111.130478
6500.976562	-110.787056
6501.953125	-110.772804
6502.929688	-111.265694
6503.906250	-111.102333
6504.882812	-111.203011
6505.859375	-110.855148
6506.835938	-110.222084
6507.812500	-110.728554
6508.789062	-110.322868
6509.765625	-110.833595
6510.742188	-111.110199
6511.718750	-109.975494
6512.695312	-110.728874
6513.671875	-111.083992
6514.648438	-110.746994
6515.625000	-110.370567
6516.601562	-110.970322
6517.578125	-110.877060
6518.554688	-110.747475
6519.531250	-111.089500
6520.507812	-109.913246
6521.484375	-110.252113
6522.460938	-110.716667
6523.437500	-111.109161
6524.414062	-111.151741
6525.390625	-110.670486
6526.367188	-111.502785
6527.343750	-111.419228
6528.320312	-110.427498
6529.296875	-111.016289
6530.273438	-111.150169
6531.250000	-110.750519
6532.226562	-111.078125
6533.203125	-110.615250
6534.179688	-111.024200
6535.156250	-111.346642
6536.132812	-110.936890
6537.109375	-110.879478
6538.085938	-111.236176
6539.062500	-111.384850
6540.039062	-111.483215
6541.015625	-110.672844
6541.992188	-111.828682
6542.968750	-111.033081
6543.945312	-111.661041
6544.921875	-111.779770
6545.898438	-112.045959
6546.875000	-111.368828
6547.851562	-111.484352
6548.828125	-111.154655
6549.804688	-111.349670
6550.781250	-110.733315
6551.757812	-111.501869
6552.734375	-111.680977
6553.710938	-110.705605
6554.687500	-111.566536
6555.664062	-111.801102
6556.640625	-110.696732
6557.617188	-111.962975
6558.593750	-111.766083
6559.570312	-111.622223
6560.546875	-111.842140
6561.523438	-111.420250
6562.500000	-111.604851
6563.476562	-111.367043
6564.453125	-111.958069
6565.429688	-111.601509
6566.406250	-111.474968
6567.382812	-111.618797
6568.359375	-111.763245
6569.335938	-112.021706
6570.312500	-112.064758
6571.289062	-112.236855
6572.265625	-111.633400
6573.242188	-111.969444
6574.218750	-112.148308
6575.195312	-112.217636
6576.171875	-111.816650
6577.148438	-112.539047
6578.125000	-111.851624
6579.101562	-112.160156
6580.078125	-112.454407
6581.054688	-112.155190
6582.031250	-112.276711
6583.007812	-112.452660
6583.984375	-111.815651
6584.960938	-111.941978
6585.937500	-112.335052
6586.914062	-111.425255
6587.890625	-112.149925
6588.867188	-112.678055
6589.843750	-112.001770
6590.820312	-112.554184
6591.796875	-112.692772
6592.773438	-111.705452
6593.750000	-112.570992
6594.726562	-112.271202
6595.703125	-112.355644
6596.679688	-113.110687
6597.656250	-111.881065
6598.632812	-112.361755
6599.609375	-113.068733
6600.585938	-112.864990
6601.562500	-112.622971
6602.539062	-112.795143
6603.515625	-112.016510
6604.492188	-112.199989
6605.468750	-112.675827
6606.445312	-112.457474
6607.421875	-112.274200
6608.398438	-112.253372
6609.375000	-112.362953
6610.351562	-112.487701
6611.328125	-112.468689
6612.304688	-112.305336
6613.281250	-112.530975
6614.257812	-112.839378
6615.234375	-112.321907
6616.210938	-112.047340
6617.187500	-112.474876
6618.164062	-112.395187
6619.140625	-112.134651
6620.117188	-111.750381
6621.093750	-112.847382
6622.070312	-112.590775
6623.046875	-113.216194
6624.023438	-113.018501
6625.000000	-112.627243
6625.976562	-112.699486
6626.953125	-112.785194
6627.929688	-112.789543
6628.906250	-112.309059
6629.882812	-112.699387
6630.859375	-112.604080
6631.835938	-113.075920
6632.812500	-111.814674
6633.789062	-112.854759
6634.765625	-112.384895
6635.742188	-113.067711
6636.718750	-113.243851
6637.695312	-112.525223
6638.671875	-111.979248
6639.648438	-111.782524
6640.625000	-112.004509
6641.601562	-112.123268
6642.578125	-112.512779
6643.554688	-112.435799
6644.531250	-112.982224
6645.507812	-112.345840
6646.484375	-112.273544
6647.460938	-111.985863
6648.437500	-112.329422
6649.414062	-112.056038
6650.390625	-111.902985
6651.367188	-112.023804
6652.343750	-112.095421
6653.320312	-111.845657
6654.296875	-112.126030
6655.273438	-112.152786
6656.250000	-111.709579
6657.226562	-112.206306
6658.203125	-112.164490
6659.179688	-111.953453
6660.156250	-112.492836
6661.132812	-112.528046
6662.109375	-111.935516
6663.085938	-112.253586
6664.062500	-113.300789
6665.039062	-111.652901
6666.015625	-111.564323
6666.992188	-112.303413
6667.968750	-111.718567
6668.945312	-111.910614
6669.921875	-112.359932
6670.898438	-112.369209
6671.875000	-112.141457
6672.851562	-112.488876
6673.828125	-111.447334
6674.804688	-112.010963
6675.781250	-111.710907
6676.757812	-111.888145
6677.734375	-111.399033
6678.710938	-111.822884
6679.687500	-111.234016
6680.664062	-111.707947
6681.640625	-111.682228
6682.617188	-111.077026
6683.593750	-111.516838
6684.570312	-110.906151
6685.546875	-111.828209
6686.523438	-111.149178
6687.500000	-111.491615
6688.476562	-111.298141
6689.453125	-111.310738
6690.429688	-111.231682
6691.406250	-111.410950
6692.382812	-111.309929
6693.359375	-111.611702
6694.335938	-111.552536
6695.312500	-111.130775
6696.289062	-111.121338
6697.265625	-111.569862
6698.242188	-111.593719
6699.218750	-111.823906
6700.195312	-110.898743
6701.171875	-110.981628
6702.148438	-111.888573
6703.125000	-111.401588
6704.101562	-111.326782
6705.078125	-111.306976
6706.054688	-111.497765
6707.031250	-111.973427
6708.007812	-111.285690
6708.984375	-110.829872
6709.960938	-112.024635
6710.937500	-111.846680
6711.914062	-111.781944
6712.890625	-111.456352
6713.867188	-110.927750
6714.843750	-111.322212
6715.820312	-111.147835
6716.796875	-111.422256
6717.773438	-111.098854
6718.750000	-111.051300
6719.726562	-110.932724
6720.703125	-111.500740
6721.679688	-111.050056
6722.656250	-110.420303
6723.632812	-110.869095
6724.609375	-110.650742
6725.585938	-110.655609
6726.562500	-110.672028
6727.539062	-110.884483
6728.515625	-110.975723
6729.492188	-110.571503
6730.468750	-110.999100
6731.445312	-110.196892
6732.421875	-111.019119
6733.398438	-110.851341
6734.375000	-111.107613
6735.351562	-110.908867
6736.328125	-110.650063
6737.304688	-111.168251
6738.281250	-111.128830
6739.257812	-111.588913
6740.234375	-111.282959
6741.210938	-110.872948
6742.187500	-111.233994
6743.164062	-111.730019
6744.140625	-110.794052
6745.117188	-110.732643
6746.093750	-111.057846
6747.070312	-111.396759
6748.046875	-111.552063
6749.023438	-111.247635
6750.000000	-111.048073
6750.976562	-110.906029
6751.953125	-110.762634
6752.929688	-111.080780
6753.906250	-110.680023
6754.882812	-110.809395
6755.859375	-111.559395
6756.835938	-111.307312
6757.812500	-111.422623
6758.789062	-111.331383
6759.765625	-111.603996
6760.742188	-110.624199
6761.718750	-111.067795
6762.695312	-110.866692
6763.671875	-110.897911
6764.648438	-111.151047
6765.625000	-110.486435
6766.601562	-110.466957
6767.578125	-110.707748
6768.554688	-111.248199
6769.531250	-110.879211
6770.507812	-111.049507
6771.484375	-110.262337
6772.460938	-110.733559
6773.437500	-111.197136
6774.414062	-110.818047
6775.390625	-110.708603
6776.367188	-110.672607
6777.343750	-111.123520
6778.320312	-111.042618
6779.296875	-110.407814
6780.273438	-110.831703
6781.250000	-110.021225
6782.226562	-111.379211
6783.203125	-110.616577
6784.179688	-110.350891
6785.156250	-110.786949
6786.132812	-110.534668
6787.109375	-111.944473
6788.085938	-110.710091
6789.062500	-110.314911
6790.039062	-110.799797
6791.015625	-110.584602
6791.992188	-110.656464
6792.968750	-110.300362
6793.945312	-110.636421
6794.921875	-110.792725
6795.898438	-110.133118
6796.875000	-110.126266
6797.851562	-110.509933
6798.828125	-110.651588
6799.804688	-109.773842
6800.781250	-110.076782
6801.757812	-110.519264
6802.734375	-110.348206
6803.710938	-109.402840
6804.687500	-110.325264
6805.664062	-111.006065
6806.640625	-110.079079
6807.617188	-110.474220
6808.593750	-110.825180
6809.570312	-110.680260
6810.546875	-110.694511
6811.523438	-110.787514
6812.500000	-110.131554
6813.476562	-110.718925
6814.453125	-109.986938
6815.429688	-110.482521
6816.406250	-111.219948
6817.382812	-110.474854
6818.359375	-110.225601
6819.335938	-110.770737
6820.312500	-109.924057
6821.289062	-109.948746
6822.265625	-110.581650
6823.242188	-110.720528
6824.218750	-110.528351
6825.195312	-109.945183
6826.171875	-110.233849
6827.148438	-110.467857
6828.125000	-110.184250
6829.101562	-110.477180
6830.078125	-110.651031
6831.054688	-109.409981
6832.031250	-110.151443
6833.007812	-110.831909
6833.984375	-109.942741
6834.960938	-110.060631
6835.937500	-110.217598
6836.914062	-110.104591
6837.890625	-110.278992
6838.867188	-110.249428
6839.843750	-110.186760
6840.820312	-110.215286
6841.796875	-109.419731
6842.773438	-110.287888
6843.750000	-109.802559
6844.726562	-109.918327
6845.703125	-110.306374
6846.679688	-110.045311
6847.656250	-109.882851
6848.632812	-110.334747
6849.609375	-110.237587
6850.585938	-110.097839
6851.562500	-110.259674
6852.539062	-109.640305
6853.515625	-109.975922
6854.492188	-110.485283
6855.468750	-111.036705
6856.445312	-109.991585
6857.421875	-110.193993
6858.398438	-110.700935
6859.375000	-110.462898
6860.351562	-110.320053
6861.328125	-110.100510
6862.304688	-111.047226
6863.281250	-110.766884
6864.257812	-110.875175
6865.234375	-110.723633
6866.210938	-111.071190
6867.187500	-109.885437
6868.164062	-110.153839
6869.140625	-110.657791
6870.117188	-110.494400
6871.093750	-110.593109
6872.070312	-110.893417
6873.046875	-110.880356
6874.023438	-110.623817
6875.000000	-110.974480
6875.976562	-110.147240
6876.953125	-110.674164
6877.929688	-110.423416
6878.906250	-110.486946
6879.882812	-110.946342
6880.859375	-111.006996
6881.835938	-110.615013
6882.812500	-110.192474
6883.789062	-110.698753
6884.765625	-110.920975
6885.742188	-110.454773
6886.718750	-110.484444
6887.695312	-110.045715
6888.671875	-110.781578
6889.648438	-110.982643
6890.625000	-111.188904
6891.601562	-111.302795
6892.578125	-110.611488
6893.554688	-109.835793
6894.531250	-110.943130
6895.507812	-110.843811
6896.484375	-111.254486
6897.460938	-110.886101
6898.437500	-111.213028
6899.414062	-111.663361
6900.390625	-110.459290
6901.367188	-111.639572
6902.343750	-110.994423
6903.320312	-110.512138
6904.296875	-110.998268
6905.273438	-110.734779
6906.250000	-111.391823
6907.226562	-110.957138
6908.203125	-111.190666
6909.179688	-111.961624
6910.156250	-111.809517
6911.132812	-112.092979
6912.109375	-111.434944
6913.085938	-111.929008
6914.062500	-111.091507
6915.039062	-111.234024
6916.015625	-111.782524
6916.992188	-111.602921
6917.968750	-111.736305
6918.945312	-111.576569
6919.921875	-112.412292
6920.898438	-111.494637
6921.875000	-112.199127
6922.851562	-111.992470
6923.828125	-111.537453
6924.804688	-111.530083
6925.781250	-112.362129
6926.757812	-111.714218
6927.734375	-112.139305
6928.710938	-111.716484
6929.687500	-112.466049
6930.664062	-112.562088
6931.640625	-111.960274
6932.617188	-112.507828
6933.593750	-111.503021
6934.570312	-112.362152
6935.546875	-111.997864
6936.523438	-111.799995
6937.500000	-112.354568
6938.476562	-111.859077
6939.453125	-112.297867
6940.429688	-112.340805
6941.406250	-112.539566
6942.382812	-112.308220
6943.359375	-112.640007
6944.335938	-111.921333
6945.312500	-113.068481
6946.289062	-112.544060
6947.265625	-113.191978
6948.242188	-112.395393
6949.218750	-112.134430
6950.195312	-111.979050
6951.171875	-112.714340
6952.148438	-111.550682
6953.125000	-112.424156
6954.101562	-112.431129
6955.078125	-112.441261
6956.054688	-112.470306
6957.031250	-112.664894
6958.007812	-112.517250
6958.984375	-113.334450
6959.960938	-112.840431
6960.937500	-112.644928
6961.914062	-112.659065
6962.890625	-113.234413
6963.867188	-112.560753
6964.843750	-112.358009
6965.820312	-112.440086
6966.796875	-113.178459
6967.773438	-112.271187
6968.750000	-112.728951
6969.726562	-112.659180
6970.703125	-112.905067
6971.679688	-113.493172
6972.656250	-112.945580
6973.632812	-113.636307
6974.609375	-112.953659
6975.585938	-112.786606
6976.562500	-112.535263
6977.539062	-113.316650
6978.515625	-113.238731
6979.492188	-113.049736
6980.468750	-113.329216
6981.445312	-114.367737
6982.421875	-112.880203
6983.398438	-113.594604
6984.375000	-113.387108
6985.351562	-113.247032
6986.328125	-114.136383
6987.304688	-113.484642
6988.281250	-113.348328
6989.257812	-113.147278
6990.234375	-112.627213
6991.210938	-113.141769
6992.187500	-113.421135
6993.164062	-113.187721
6994.140625	-113.850189
6995.117188	-113.152512
6996.093750	-112.807007
6997.070312	-112.708099
6998.046875	-113.447350
6999.023438	-112.892960
7000.000000	-113.234543
7000.976562	-113.855682
7001.953125	-113.422966
7002.929688	-113.572830
7003.906250	-113.487030
7004.882812	-113.493256
7005.859375	-113.179276
7006.835938	-113.509804
7007.812500	-113.324608
7008.789062	-113.430710
7009.765625	-113.400467
7010.742188	-113.208015
7011.718750	-114.011116
7012.695312	-113.874779
7013.671875	-113.859673
7014.648438	-112.834511
7015.625000	-113.735260
7016.601562	-113.303886
7017.578125	-113.650383
7018.554688	-112.816780
7019.531250	-113.732689
7020.507812	-112.969498
7021.484375	-113.091995
7022.460938	-113.069237
7023.437500	-113.402267
7024.414062	-114.482727
7025.390625	-113.689995
7026.367188	-113.263092
7027.343750	-113.694466
7028.320312	-113.530830
7029.296875	-112.966156
7030.273438	-112.462585
7031.250000	-113.652863
7032.226562	-113.851814
7033.203125	-113.573616
7034.179688	-112.455551
7035.156250	-113.829201
7036.132812	-113.290131
7037.109375	-113.919067
7038.085938	-113.512764
7039.062500	-113.426399
7040.039062	-112.833946
7041.015625	-113.392258
7041.992188	-113.451180
7042.968750	-112.916344
7043.945312	-112.854050
7044.921875	-113.284203
7045.898438	-112.651863
7046.875000	-113.297752
7047.851562	-112.861465
7048.828125	-112.747330
7049.804688	-113.875587
7050.781250	-113.665756
7051.757812	-113.609154
7052.734375	-112.289696
7053.710938	-113.013451
7054.687500	-113.871117
7055.664062	-113.088081
7056.640625	-113.387466
7057.617188	-113.542839
7058.593750	-113.747673
7059.570312	-113.060486
7060.546875	-113.588776
7061.523438	-113.038673
7062.500000	-113.032936
7063.476562	-113.164864
7064.453125	-113.801315
7065.429688	-113.588501
7066.406250	-113.761299
7067.382812	-113.560730
7068.359375	-112.966072
7069.335938	-113.299889
7070.312500	-114.216194
7071.289062	-113.528130
7072.265625	-113.352715
7073.242188	-114.005943
7074.218750	-112.944046
7075.195312	-113.582466
7076.171875	-113.799736
7077.148438	-113.455132
7078.125000	-112.905487
7079.101562	-113.163757
7080.078125	-113.131104
7081.054688	-113.113297
7082.031250	-114.009224
7083.007812	-113.211296
7083.984375	-113.612350
7084.960938	-113.439789
7085.937500	-113.356018
7086.914062	-112.985336
7087.890625	-112.807053
7088.867188	-113.379631
7089.843750	-112.648582
7090.820312	-113.509377
7091.796875	-113.159798
7092.773438	-113.559387
7093.750000	-113.526505
7094.726562	-113.888687
7095.703125	-112.441658
7096.679688	-113.384186
7097.656250	-113.319702
7098.632812	-113.373482
7099.609375	-113.081093
7100.585938	-112.801971
7101.562500	-112.317741
7102.539062	-113.447800
7103.515625	-112.540512
7104.492188	-113.147018
7105.468750	-112.749245
7106.445312	-112.428963
7107.421875	-114.125954
7108.398438	-113.522552
7109.375000	-113.547859
7110.351562	-112.862373
7111.328125	-112.845078
7112.304688	-113.229630
7113.281250	-113.588272
7114.257812	-113.074120
7115.234375	-113.208061
7116.210938	-112.673943
7117.187500	-113.421425
7118.164062	-113.347160
7119.140625	-113.177246
7120.117188	-113.236847
7121.093750	-113.146400
7122.070312	-113.930168
7123.046875	-113.011162
7124.023438	-112.539185
7125.000000	-112.417397
7125.976562	-112.725830
7126.953125	-112.709557
7127.929688	-113.225349
7128.906250	-113.561699
7129.882812	-112.540634
7130.859375	-112.505074
7131.835938	-113.176010
7132.812500	-112.728096
7133.789062	-113.119026
7134.765625	-112.710541
7135.742188	-112.834984
7136.718750	-113.156082
7137.695312	-113.654137
7138.671875	-113.695190
7139.648438	-113.625038
7140.625000	-113.308281
7141.601562	-113.231789
7142.578125	-113.148956
7143.554688	-113.262497
7144.531250	-113.606506
7145.507812	-113.740868
7146.484375	-113.087547
7147.460938	-113.379509
7148.437500	-112.609581
7149.414062	-112.555481
7150.390625	-112.913399
7151.367188	-113.145126
7152.343750	-113.646118
7153.320312	-113.354706
7154.296875	-112.609505
7155.273438	-113.460052
7156.250000	-113.304886
7157.226562	-113.093933
7158.203125	-112.913422
7159.179688	-113.424828
7160.156250	-113.219963
7161.132812	-113.075790
7162.109375	-112.972557
7163.085938	-113.311493
7164.062500	-114.076271
7165.039062	-113.734932
7166.015625	-113.552475
7166.992188	-112.742775
7167.968750	-112.996155
7168.945312	-112.891212
7169.921875	-113.317596
7170.898438	-113.133919
7171.875000	-113.486519
7172.851562	-113.369308
7173.828125	-113.681244
7174.804688	-113.331627
7175.781250	-113.129417
7176.757812	-113.719658
7177.734375	-113.631638
7178.710938	-113.132561
7179.687500	-113.429817
7180.664062	-113.140625
7181.640625	-113.955269
7182.617188	-113.151321
7183.593750	-114.265785
7184.570312	-113.339493
7185.546875	-113.988373
7186.523438	-113.200882
7187.500000	-113.795891
7188.476562	-113.521645
7189.453125	-114.050728
7190.429688	-113.902245
7191.406250	-114.162315
7192.382812	-114.100670
7193.359375	-114.040672
7194.335938	-113.628571
7195.312500	-113.889397
7196.289062	-112.996384
7197.265625	-113.636856
7198.242188	-113.831116
7199.218750	-114.776413
7200.195312	-113.848915
7201.171875	-114.143776
7202.148438	-114.270996
7203.125000	-115.110725
7204.101562	-114.348251
7205.078125	-114.273003
7206.054688	-114.422340
7207.031250	-114.406364
7208.007812	-114.274193
7208.984375	-114.474991
7209.960938	-115.389565
7210.937500	-115.002594
7211.914062	-114.594856
7212.890625	-114.559059
7213.867188	-113.886337
7214.843750	-114.707588
7215.820312	-114.756027
7216.796875	-113.987900
7217.773438	-114.639046
7218.750000	-114.718117
7219.726562	-114.679794
7220.703125	-114.148308
7221.679688	-114.980278
7222.656250	-115.116219
7223.632812	-115.262253
7224.609375	-114.720360
7225.585938	-114.745193
7226.562500	-115.162292
7227.539062	-115.007065
7228.515625	-114.953293
7229.492188	-115.471977
7230.468750	-115.679253
7231.445312	-115.195473
7232.421875	-115.329216
7233.398438	-115.955742
7234.375000	-115.266594
7235.351562	-115.290260
7236.328125	-115.491035
7237.304688	-115.627945
7238.281250	-114.984940
7239.257812	-115.356544
7240.234375	-115.823067
7241.210938	-114.904861
7242.187500	-115.646194
7243.164062	-116.177277
7244.140625	-114.737427
7245.117188	-116.214279
7246.093750	-116.180267
7247.070312	-115.590698
7248.046875	-115.335236
7249.023438	-115.386742
7250.000000	-115.806992
7250.976562	-115.890648
7251.953125	-115.803024
7252.929688	-115.733482
7253.906250	-116.059135
7254.882812	-115.700699
7255.859375	-116.608589
7256.835938	-116.264168
7257.812500	-116.561340
7258.789062	-116.228333
7259.765625	-116.556145
7260.742188	-116.035187
7261.718750	-116.505486
7262.695312	-116.241188
7263.671875	-116.047394
7264.648438	-116.248138
7265.625000	-116.355820
7266.601562	-116.690178
7267.578125	-116.224564
7268.554688	-116.318291
7269.531250	-117.191795
7270.507812	-116.945503
7271.484375	-116.470474
7272.460938	-116.844734
7273.437500	-116.565407
7274.414062	-116.583763
7275.390625	-116.759087
7276.367188	-116.370056
7277.343750	-116.631615
7278.320312	-116.615112
7279.296875	-116.933395
7280.273438	-116.869514
7281.250000	-117.315620
7282.226562	-116.485634
7283.203125	-117.182274
7284.179688	-117.106224
7285.156250	-116.450905
7286.132812	-117.135674
7287.109375	-116.589249
7288.085938	-116.736053
7289.062500	-116.852348
7290.039062	-117.189049
7291.015625	-116.431717
7291.992188	-117.047173
7292.968750	-117.430756
7293.945312	-117.141777
7294.921875	-117.188896
7295.898438	-117.349823
7296.875000	-117.079590
7297.851562	-117.166290
7298.828125	-117.409676
7299.804688	-117.620872
7300.781250	-117.343582
7301.757812	-117.628899
7302.734375	-117.405212
7303.710938	-117.412376
7304.687500	-117.228386
7305.664062	-117.485626
7306.640625	-117.530334
7307.617188	-117.451843
7308.593750	-117.461884
7309.570312	-117.249580
7310.546875	-117.116585
7311.523438	-117.502350
7312.500000	-117.337585
7313.476562	-117.606293
7314.453125	-117.753693
7315.429688	-117.337967
7316.406250	-117.153427
7317.382812	-117.703941
7318.359375	-117.425674
7319.335938	-117.393860
7320.312500	-117.467384
7321.289062	-117.559807
7322.265625	-117.490814
7323.242188	-117.443657
7324.218750	-117.506393
7325.195312	-117.385017
7326.171875	-117.614059
7327.148438	-117.539726
7328.125000	-117.812462
7329.101562	-117.828339
7330.078125	-117.709541
7331.054688	-117.694389
7332.031250	-117.871658
7333.007812	-117.930626
7333.984375	-117.639755
7334.960938	-117.801125
7335.937500	-118.109337
7336.914062	-117.852989
7337.890625	-117.641640
7338.867188	-117.801277
7339.843750	-117.822548
7340.820312	-117.673393
7341.796875	-117.866432
7342.773438	-117.953827
7343.750000	-117.895889
7344.726562	-117.843208
7345.703125	-118.057899
7346.679688	-117.722153
7347.656250	-117.853172
7348.632812	-117.899796
7349.609375	-117.948044
7350.585938	-117.976318
7351.562500	-117.977753
7352.539062	-117.932396
7353.515625	-118.085915
7354.492188	-118.205711
7355.468750	-118.096161
7356.445312	-118.191231
7357.421875	-118.008934
7358.398438	-118.143196
7359.375000	-117.856537
7360.351562	-117.974098
7361.328125	-118.392349
7362.304688	-117.915337
7363.281250	-118.061569
7364.257812	-117.979980
7365.234375	-118.189323
7366.210938	-118.011375
7367.187500	-118.182114
7368.164062	-118.138199
7369.140625	-117.871681
7370.117188	-118.190872
7371.093750	-118.134842
7372.070312	-117.983414
7373.046875	-118.420380
7374.023438	-118.067642
7375.000000	-118.063553
7375.976562	-118.537308
7376.953125	-118.030312
7377.929688	-118.387039
7378.906250	-118.076576
7379.882812	-118.712494
7380.859375	-118.464485
7381.835938	-118.463928
7382.812500	-118.129135
7383.789062	-118.260925
7384.765625	-118.649330
7385.742188	-118.507935
7386.718750	-118.254845
7387.695312	-118.338394
7388.671875	-118.515785
7389.648438	-118.517540
7390.625000	-118.795998
7391.601562	-118.322395
7392.578125	-118.623825
7393.554688	-118.181206
7394.531250	-118.539978
7395.507812	-118.266281
7396.484375	-118.405792
7397.460938	-118.572548
7398.437500	-118.510963
7399.414062	-118.410522
7400.390625	-118.511795
7401.367188	-118.492874
7402.343750	-118.377487
7403.320312	-118.440430
7404.296875	-118.355713
7405.273438	-118.797035
7406.250000	-118.606453
7407.226562	-118.536797
7408.203125	-118.559761
7409.179688	-118.337051
7410.156250	-118.363281
7411.132812	-118.552834
7412.109375	-118.733528
7413.085938	-118.463165
7414.062500	-118.598976
7415.039062	-118.569305
7416.015625	-118.267670
7416.992188	-118.537682
7417.968750	-118.386139
7418.945312	-118.544785
7419.921875	-118.198738
7420.898438	-118.672005
7421.875000	-118.449219
7422.851562	-118.616837
7423.828125	-118.650726
7424.804688	-118.474121
7425.781250	-118.461014
7426.757812	-118.483269
7427.734375	-118.629013
7428.710938	-118.796379
7429.687500	-118.502266
7430.664062	-118.596825
7431.640625	-118.648911
7432.617188	-118.692482
7433.593750	-118.557526
7434.570312	-118.615089
7435.546875	-118.508324
7436.523438	-118.612549
7437.500000	-118.540741
7438.476562	-118.504318
7439.453125	-118.716278
7440.429688	-118.651459
7441.406250	-118.660385
7442.382812	-118.683220
7443.359375	-118.817329
7444.335938	-118.593399
7445.312500	-118.638550
7446.289062	-118.725311
7447.265625	-118.678452
7448.242188	-118.649094
7449.218750	-118.646698
7450.195312	-118.678726
7451.171875	-118.707809
7452.148438	-118.647224
7453.125000	-118.745789
7454.101562	-118.749252
7455.078125	-118.617554
7456.054688	-118.753281
7457.031250	-118.681953
7458.007812	-118.575417
7458.984375	-118.736092
7459.960938	-118.711037
7460.937500	-118.770912
7461.914062	-118.583961
7462.890625	-118.717163
7463.867188	-118.692749
7464.843750	-118.751122
7465.820312	-118.695381
7466.796875	-118.807861
7467.773438	-118.628670
7468.750000	-118.720154
7469.726562	-118.746704
7470.703125	-118.735336
7471.679688	-118.686165
7472.656250	-118.843262
7473.632812	-118.766144
7474.609375	-118.812775
7475.585938	-118.776199
7476.562500	-118.818825
7477.539062	-118.655159
7478.515625	-118.737358
7479.492188	-118.690132
7480.468750	-118.591278
7481.445312	-118.765175
7482.421875	-118.725212
7483.398438	-118.730125
7484.375000	-118.727486
7485.351562	-118.763130
7486.328125	-118.684372
7487.304688	-118.720200
7488.281250	-118.706306
7489.257812	-118.718391
7490.234375	-118.722511
7491.210938	-118.650803
7492.187500	-118.790565
7493.164062	-118.695793
7494.140625	-118.533661
7495.117188	-118.708298
7496.093750	-118.765862
7497.070312	-118.769424
7498.046875	-118.823059
7499.023438	-118.766319
7500.000000	-118.793114
7500.976562	-118.806686
7501.953125	-118.758728
7502.929688	-118.805954
7503.906250	-118.772476
7504.882812	-118.771454
7505.859375	-118.716034
7506.835938	-118.701653
7507.812500	-118.758301
7508.789062	-118.761497
7509.765625	-118.686783
7510.742188	-118.742928
7511.718750	-118.798714
7512.695312	-118.760803
7513.671875	-118.776237
7514.648438	-118.769058
7515.625000	-118.900452
7516.601562	-118.797279
7517.578125	-118.777626
7518.554688	-118.787979
7519.531250	-118.779861
7520.507812	-118.692940
7521.484375	-118.803520
7522.460938	-118.729523
7523.437500	-118.809715
7524.414062	-118.736839
7525.390625	-118.834625
7526.367188	-118.793488
7527.343750	-118.722885
7528.320312	-118.711189
7529.296875	-118.810989
7530.273438	-118.869614
7531.250000	-118.862465
7532.226562	-118.826630
7533.203125	-118.887360
7534.179688	-118.714699
7535.156250	-118.800728
7536.132812	-118.813087
7537.109375	-118.821503
7538.085938	-118.768906
7539.062500	-118.839890
7540.039062	-118.841400
7541.015625	-118.880524
7541.992188	-118.830917
7542.968750	-118.793961
7543.945312	-118.762100
7544.921875	-118.821877
7545.898438	-118.747726
7546.875000	-118.788918
7547.851562	-118.846329
7548.828125	-118.767273
7549.804688	-118.827484
7550.781250	-118.797333
7551.757812	-118.793724
7552.734375	-118.764473
7553.710938	-118.844284
7554.687500	-118.777939
7555.664062	-118.819633
7556.640625	-118.831665
7557.617188	-118.742531
7558.593750	-118.744675
7559.570312	-118.829826
7560.546875	-118.812683
7561.523438	-118.844772
7562.500000	-118.816322
7563.476562	-118.832886
7564.453125	-118.781342
7565.429688	-118.810616
7566.406250	-118.808853
7567.382812	-118.865807
7568.359375	-118.770981
7569.335938	-118.794937
7570.312500	-118.850929
7571.289062	-118.817711
7572.265625	-118.855179
7573.242188	-118.805664
7574.218750	-118.781754
7575.195312	-118.828835
7576.171875	-118.845917
7577.148438	-118.756676
7578.125000	-118.846947
7579.101562	-118.793877
7580.078125	-118.807777
7581.054688	-118.825974
7582.031250	-118.829803
7583.007812	-118.822502
7583.984375	-118.845024
7584.960938	-118.770828
7585.937500	-118.806992
7586.914062	-118.822281
7587.890625	-118.833900
7588.867188	-118.784309
7589.843750	-118.830727
7590.820312	-118.832527
7591.796875	-118.797279
7592.773438	-118.816177
7593.750000	-118.811775
7594.726562	-118.780739
7595.703125	-118.840324
7596.679688	-118.841331
7597.656250	-118.857979
7598.632812	-118.796143
7599.609375	-118.807556
7600.585938	-118.789154
7601.562500	-118.821274
7602.539062	-118.822098
7603.515625	-118.820282
7604.492188	-118.822922
7605.468750	-118.839470
7606.445312	-118.825600
7607.421875	-118.872360
7608.398438	-118.807640
7609.375000	-118.807907
7610.351562	-118.845917
7611.328125	-118.822975
7612.304688	-118.833870
7613.281250	-118.814560
7614.257812	-118.777275
7615.234375	-118.838661
7616.210938	-118.823929
7617.187500	-118.841621
7618.164062	-118.820831
7619.140625	-118.791824
7620.117188	-118.818436
7621.093750	-118.835640
7622.070312	-118.838623
7623.046875	-118.788383
7624.023438	-118.814308
7625.000000	-118.831276
7625.976562	-118.771912
7626.953125	-118.798546
7627.929688	-118.841316
7628.906250	-118.834305
7629.882812	-118.819687
7630.859375	-118.806602
7631.835938	-118.796318
7632.812500	-118.842133
7633.789062	-118.814301
7634.765625	-118.868896
7635.742188	-118.845268
7636.718750	-118.808037
7637.695312	-118.853264
7638.671875	-118.836662
7639.648438	-118.824867
7640.625000	-118.819176
7641.601562	-118.852409
7642.578125	-118.845039
7643.554688	-118.829872
7644.531250	-118.839172
7645.507812	-118.835632
7646.484375	-118.822754
7647.460938	-118.828728
7648.437500	-118.820885
7649.414062	-118.845619
7650.390625	-118.841591
7651.367188	-118.836395
7652.343750	-118.828056
7653.320312	-118.822830
7654.296875	-118.831062
7655.273438	-118.845100
7656.250000	-118.806656
7657.226562	-118.820389
7658.203125	-118.839226
7659.179688	-118.828087
7660.156250	-118.826454
7661.132812	-118.829475
7662.109375	-118.812851
7663.085938	-118.832886
7664.062500	-118.840736
7665.039062	-118.828896
7666.015625	-118.838493
7666.992188	-118.856476
7667.968750	-118.831642
7668.945312	-118.836929
7669.921875	-118.835503
7670.898438	-118.835640
7671.875000	-118.854591
7672.851562	-118.840294
7673.828125	-118.831779
7674.804688	-118.830360
7675.781250	-118.850708
7676.757812	-118.850983
7677.734375	-118.851830
7678.710938	-118.825989
7679.687500	-118.828880
7680.664062	-118.825493
7681.640625	-118.843483
7682.617188	-118.854584
7683.593750	-118.841003
7684.570312	-118.828003
7685.546875	-118.848297
7686.523438	-118.838417
7687.500000	-118.831795
7688.476562	-118.833290
7689.453125	-118.860222
7690.429688	-118.843712
7691.406250	-118.836456
7692.382812	-118.841896
7693.359375	-118.847282
7694.335938	-118.841736
7695.312500	-118.835396
7696.289062	-118.841095
7697.265625	-118.843735
7698.242188	-118.814529
7699.218750	-118.836090
7700.195312	-118.834259
7701.171875	-118.846458
7702.148438	-118.834892
7703.125000	-118.844864
7704.101562	-118.837616
7705.078125	-118.832535
7706.054688	-118.844025
7707.031250	-118.841965
7708.007812	-118.848694
7708.984375	-118.839523
7709.960938	-118.837044
7710.937500	-118.841682
7711.914062	-118.834625
7712.890625	-118.841995
7713.867188	-118.834656
7714.843750	-118.832947
7715.820312	-118.838547
7716.796875	-118.856339
7717.773438	-118.838165
7718.750000	-118.846626
7719.726562	-118.842789
7720.703125	-118.839012
7721.679688	-118.839523
7722.656250	-118.845345
7723.632812	-118.850594
7724.609375	-118.848923
7725.585938	-118.837570
7726.562500	-118.852623
7727.539062	-118.848618
7728.515625	-118.841621
7729.492188	-118.850021
7730.468750	-118.841431
7731.445312	-118.837006
7732.421875	-118.851280
7733.398438	-118.844315
7734.375000	-118.840652
7735.351562	-118.835854
7736.328125	-118.841316
7737.304688	-118.845352
7738.281250	-118.845398
7739.257812	-118.846321
7740.234375	-118.849716
7741.210938	-118.843033
7742.187500	-118.846840
7743.164062	-118.852562
7744.140625	-118.855774
7745.117188	-118.840675
7746.093750	-118.846786
7747.070312	-118.843323
7748.046875	-118.847107
7749.023438	-118.844810
7750.000000	-118.844940
7750.976562	-118.849548
7751.953125	-118.845451
7752.929688	-118.846008
7753.906250	-118.845337
7754.882812	-118.847153
7755.859375	-118.842842
7756.835938	-118.846344
7757.812500	-118.850616
7758.789062	-118.848190
7759.765625	-118.852287
7760.742188	-118.849655
7761.718750	-118.851479
7762.695312	-118.843613
7763.671875	-118.845963
7764.648438	-118.849190
7765.625000	-118.845711
7766.601562	-118.847481
7767.578125	-118.851204
7768.554688	-118.849838
7769.531250	-118.850594
7770.507812	-118.850983
7771.484375	-118.851379
7772.460938	-118.844643
7773.437500	-118.845963
7774.414062	-118.850487
7775.390625	-118.846634
7776.367188	-118.849815
7777.343750	-118.849075
7778.320312	-118.848946
7779.296875	-118.846817
7780.273438	-118.848114
7781.250000	-118.851067
7782.226562	-118.846207
7783.203125	-118.849785
7784.179688	-118.849159
7785.156250	-118.850357
7786.132812	-118.845528
7787.109375	-118.846504
7788.085938	-118.851456
7789.062500	-118.847954
7790.039062	-118.845604
7791.015625	-118.852219
7791.992188	-118.849632
7792.968750	-118.848213
7793.945312	-118.849686
7794.921875	-118.850960
7795.898438	-118.849907
7796.875000	-118.849541
7797.851562	-118.852333
7798.828125	-118.850937
7799.804688	-118.847641
7800.781250	-118.849510
7801.757812	-118.852951
7802.734375	-118.849350
7803.710938	-118.848091
7804.687500	-118.850510
7805.664062	-118.851112
7806.640625	-118.849731
7807.617188	-118.850189
7808.593750	-118.851791
7809.570312	-118.850517
7810.546875	-118.849373
7811.523438	-118.854134
7812.500000	-118.852318
7813.476562	-118.848625
7814.453125	-118.851898
7815.429688	-118.852943
7816.406250	-118.849167
7817.382812	-118.850105
7818.359375	-118.852264
7819.335938	-118.852150
7820.312500	-118.850143
7821.289062	-118.852318
7822.265625	-118.852303
7823.242188	-118.849792
7824.218750	-118.850571
7825.195312	-118.854012
7826.171875	-118.852242
7827.148438	-118.849251
7828.125000	-118.852455
7829.101562	-118.854057
7830.078125	-118.851158
7831.054688	-118.850822
7832.031250	-118.852783
7833.007812	-118.851685
7833.984375	-118.851006
7834.960938	-118.853905
7835.937500	-118.853600
7836.914062	-118.850014
7837.890625	-118.852379
7838.867188	-118.855492
7839.843750	-118.852898
7840.820312	-118.850327
7841.796875	-118.853317
7842.773438	-118.854019
7843.750000	-118.851494
7844.726562	-118.851944
7845.703125	-118.854706
7846.679688	-118.852936
7847.656250	-118.852135
7848.632812	-118.855461
7849.609375	-118.854301
7850.585938	-118.851181
7851.562500	-118.852867
7852.539062	-118.855759
7853.515625	-118.852936
7854.492188	-118.850998
7855.468750	-118.854599
7856.445312	-118.854843
7857.421875	-118.851593
7858.398438	-118.853889
7859.375000	-118.855064
7860.351562	-118.852745
7861.328125	-118.852531
7862.304688	-118.855598
7863.281250	-118.854538
7864.257812	-118.851456
7865.234375	-118.854149
7866.210938	-118.856468
7867.187500	-118.853653
7868.164062	-118.852425
7869.140625	-118.855377
7870.117188	-118.855011
7871.093750	-118.853073
7872.070312	-118.854706
7873.046875	-118.855484
7874.023438	-118.853050
7875.000000	-118.853699
7875.976562	-118.856651
7876.953125	-118.854904
7877.929688	-118.852242
7878.906250	-118.854881
7879.882812	-118.856552
7880.859375	-118.853546
7881.835938	-118.853416
7882.812500	-118.855759
7883.789062	-118.855186
7884.765625	-118.853424
7885.742188	-118.855881
7886.718750	-118.856117
7887.695312	-118.853271
7888.671875	-118.854179
7889.648438	-118.857567
7890.625000	-118.855148
7891.601562	-118.852753
7892.578125	-118.855782
7893.554688	-118.857018
7894.531250	-118.854088
7895.507812	-118.854523
7896.484375	-118.856728
7897.460938	-118.855087
7898.437500	-118.854088
7899.414062	-118.856773
7900.390625	-118.856422
7901.367188	-118.853371
7902.343750	-118.855309
7903.320312	-118.857925
7904.296875	-118.855324
7905.273438	-118.853485
7906.250000	-118.856491
7907.226562	-118.857147
7908.203125	-118.854385
7909.179688	-118.855347
7910.156250	-118.857201
7911.132812	-118.855186
7912.109375	-118.854683
7913.085938	-118.857651
7914.062500	-118.856728
7915.039062	-118.853661
7916.015625	-118.855904
7916.992188	-118.858368
7917.968750	-118.855537
7918.945312	-118.854225
7919.921875	-118.857155
7920.898438	-118.857216
7921.875000	-118.854828
7922.851562	-118.856209
7923.828125	-118.857590
7924.804688	-118.855080
7925.781250	-118.855255
7926.757812	-118.858261
7927.734375	-118.856842
7928.710938	-118.853973
7929.687500	-118.856506
7930.664062	-118.858627
7931.640625	-118.855667
7932.617188	-118.854805
7933.593750	-118.857651
7934.570312	-118.857132
7935.546875	-118.855148
7936.523438	-118.857063
7937.500000	-118.857796
7938.476562	-118.855072
7939.453125	-118.855797
7940.429688	-118.858833
7941.406250	-118.856857
7942.382812	-118.854256
7943.359375	-118.857124
7944.335938	-118.858765
7945.312500	-118.855751
7946.289062	-118.855507
7947.265625	-118.858109
7948.242188	-118.857002
7949.218750	-118.855431
7950.195312	-118.857788
7951.171875	-118.857925
7952.148438	-118.855034
7953.125000	-118.856255
7954.101562	-118.859230
7955.078125	-118.856865
7956.054688	-118.854599
7957.031250	-118.857635
7958.007812	-118.858696
7958.984375	-118.855865
7959.960938	-118.856171
7960.937500	-118.858391
7961.914062	-118.856674
7962.890625	-118.855743
7963.867188	-118.858398
7964.843750	-118.857994
7965.820312	-118.854942
7966.796875	-118.856758
7967.773438	-118.859474
7968.750000	-118.856789
7969.726562	-118.854942
7970.703125	-118.857986
7971.679688	-118.858528
7972.656250	-118.855835
7973.632812	-118.856735
7974.609375	-118.858536
7975.585938	-118.856361
7976.562500	-118.856041
7977.539062	-118.858902
7978.515625	-118.857864
7979.492188	-118.854889
7980.468750	-118.857109
7981.445312	-118.859596
7982.421875	-118.856644
7983.398438	-118.855232
7984.375000	-118.858421
7985.351562	-118.858223
7986.328125	-118.856049
7987.304688	-118.857239
7988.281250	-118.858528
7989.257812	-118.856201
7990.234375	-118.856194
7991.210938	-118.859207
7992.187500	-118.857780
7993.164062	-118.854874
7994.140625	-118.857475
7995.117188	-118.859558
7996.093750	-118.856300
7997.070312	-118.855659
7998.046875	-118.858475
7999.023438	-118.857841
