Frequency (Hz)	Level (dB)
0.976562	-71.271057
1.953125	-68.478142
2.929688	-67.295898
3.906250	-63.007633
4.882812	-64.247437
5.859375	-63.874763
6.835938	-64.181587
7.812500	-61.906521
8.789062	-64.329277
9.765625	-62.198685
10.742188	-60.211498
11.718750	-63.380569
12.695312	-65.730568
13.671875	-69.955460
14.648438	-69.467453
15.625000	-72.474869
16.601562	-74.450699
17.578125	-75.114326
18.554688	-70.772026
19.531250	-74.987579
20.507812	-73.893295
21.484375	-64.039368
22.460938	-67.197998
23.437500	-67.671539
24.414062	-72.956657
25.390625	-75.489807
26.367188	-70.538567
27.343750	-80.607201
28.320312	-78.214294
29.296875	-79.487175
30.273438	-80.831902
31.250000	-82.420525
32.226562	-80.725060
33.203125	-79.033539
34.179688	-81.985451
35.156250	-83.442886
36.132812	-84.907639
37.109375	-84.621414
38.085938	-83.972351
39.062500	-84.574219
40.039062	-85.260017
41.015625	-84.996712
41.992188	-83.271553
42.968750	-81.937691
43.945312	-72.834755
44.921875	-84.046997
45.898438	-84.848572
46.875000	-79.432457
47.851562	-83.608734
48.828125	-86.069199
49.804688	-86.957626
50.781250	-85.849777
51.757812	-84.952171
52.734375	-81.813065
53.710938	-87.166573
54.687500	-86.281258
55.664062	-84.877945
56.640625	-86.169800
57.617188	-84.477905
58.593750	-84.076447
59.570312	-86.522926
60.546875	-87.442009
61.523438	-87.386490
62.500000	-86.831032
63.476562	-86.442810
64.453125	-84.732094
65.429688	-82.877632
66.406250	-82.632042
67.382812	-83.962944
68.359375	-85.088547
69.335938	-83.685165
70.312500	-83.495552
71.289062	-83.460625
72.265625	-83.752769
73.242188	-82.463173
74.218750	-82.993980
75.195312	-82.715263
76.171875	-81.152527
77.148438	-80.001663
78.125000	-76.310936
79.101562	-71.512138
80.078125	-81.062012
81.054688	-81.400307
82.031250	-80.478630
83.007812	-78.924171
83.984375	-76.524796
84.960938	-76.813950
85.937500	-79.177086
86.914062	-77.212944
87.890625	-77.411263
88.867188	-76.935028
89.843750	-76.428436
90.820312	-78.876831
91.796875	-79.913506
92.773438	-78.421341
93.750000	-75.562363
94.726562	-75.266006
95.703125	-77.715118
96.679688	-79.223961
97.656250	-78.520546
98.632812	-72.400078
99.609375	-77.071732
100.585938	-77.972275
101.562500	-77.194405
102.539062	-77.162277
103.515625	-79.595566
104.492188	-77.602409
105.468750	-72.825630
106.445312	-78.986305
107.421875	-78.482742
108.398438	-81.057159
109.375000	-80.476143
110.351562	-80.915482
111.328125	-82.573753
112.304688	-82.105171
113.281250	-81.185989
114.257812	-81.489136
115.234375	-84.204796
116.210938	-84.723404
117.187500	-84.460899
118.164062	-82.887810
119.140625	-83.261116
120.117188	-84.643867
121.093750	-85.001846
122.070312	-84.383896
123.046875	-85.695358
124.023438	-86.664452
125.000000	-87.139977
125.976562	-87.194580
126.953125	-86.365944
127.929688	-87.167549
128.906250	-88.203491
129.882812	-88.376877
130.859375	-87.013313
131.835938	-84.777130
132.812500	-87.987251
133.789062	-87.856514
134.765625	-88.245499
135.742188	-89.121513
136.718750	-89.248619
137.695312	-89.286514
138.671875	-88.576996
139.648438	-88.486687
140.625000	-88.072762
141.601562	-88.425224
142.578125	-89.006927
143.554688	-89.405296
144.531250	-89.639359
145.507812	-89.411369
146.484375	-89.946312
147.460938	-89.240730
148.437500	-88.884781
149.414062	-89.367920
150.390625	-89.449249
151.367188	-88.895615
152.343750	-89.895355
153.320312	-89.373611
154.296875	-88.923355
155.273438	-88.717987
156.250000	-90.119675
157.226562	-90.175903
158.203125	-90.112663
159.179688	-89.988457
160.156250	-89.149765
161.132812	-89.270233
162.109375	-89.211479
163.085938	-90.429428
164.062500	-89.446884
165.039062	-88.604370
166.015625	-88.018867
166.992188	-88.457169
167.968750	-88.149368
168.945312	-88.758759
169.921875	-88.971375
170.898438	-88.560104
171.875000	-88.195953
172.851562	-87.634987
173.828125	-87.969650
174.804688	-87.697876
175.781250	-87.304619
176.757812	-86.867714
177.734375	-83.760788
178.710938	-86.604156
179.687500	-87.736542
180.664062	-86.133720
181.640625	-86.917618
182.617188	-88.697136
183.593750	-87.711655
184.570312	-87.212944
185.546875	-86.259987
186.523438	-86.184769
187.500000	-87.210312
188.476562	-87.146660
189.453125	-86.834732
190.429688	-87.252380
191.406250	-85.269333
192.382812	-84.902229
193.359375	-85.467354
194.335938	-84.625160
195.312500	-84.818665
196.289062	-85.317329
197.265625	-85.573914
198.242188	-85.711578
199.218750	-85.687248
200.195312	-84.254654
201.171875	-85.423759
202.148438	-85.087662
203.125000	-85.166321
204.101562	-83.844429
205.078125	-84.602928
206.054688	-85.700127
207.031250	-86.044014
208.007812	-86.389107
208.984375	-86.573059
209.960938	-87.195534
210.937500	-85.594398
211.914062	-85.892525
212.890625	-87.217522
213.867188	-86.886452
214.843750	-87.184265
215.820312	-87.872856
216.796875	-87.787209
217.773438	-87.846230
218.750000	-88.051414
219.726562	-87.135445
220.703125	-88.747093
221.679688	-88.813408
222.656250	-88.173378
223.632812	-88.796478
224.609375	-88.693245
225.585938	-88.729393
226.562500	-89.136124
227.539062	-89.759506
228.515625	-90.112915
229.492188	-89.574348
230.468750	-90.472092
231.445312	-89.819832
232.421875	-89.681465
233.398438	-91.489388
234.375000	-90.894699
235.351562	-90.586685
236.328125	-89.932884
237.304688	-90.474953
238.281250	-91.554352
239.257812	-91.928802
240.234375	-91.175850
241.210938	-91.857727
242.187500	-92.017975
243.164062	-92.213455
244.140625	-91.830826
245.117188	-92.568542
246.093750	-92.677689
247.070312	-91.851570
248.046875	-92.423660
249.023438	-92.033119
250.000000	-92.008469
250.976562	-92.033287
251.953125	-92.461693
252.929688	-93.412560
253.906250	-92.772209
254.882812	-93.079063
255.859375	-92.565376
256.835938	-93.450592
257.812500	-92.826637
258.789062	-93.598061
259.765625	-94.460602
260.742188	-94.434235
261.718750	-94.750694
262.695312	-95.030579
263.671875	-94.314140
264.648438	-94.379951
265.625000	-94.062744
266.601562	-93.877563
267.578125	-94.001160
268.554688	-92.716652
269.531250	-93.223091
270.507812	-93.671082
271.484375	-93.512726
272.460938	-93.517792
273.437500	-93.252762
274.414062	-93.445511
275.390625	-94.311890
276.367188	-93.330879
277.343750	-93.333267
278.320312	-93.051247
279.296875	-93.374290
280.273438	-93.204124
281.250000	-93.379753
282.226562	-93.734055
283.203125	-93.353661
284.179688	-92.859459
285.156250	-93.223633
286.132812	-93.120979
287.109375	-92.058678
288.085938	-92.386459
289.062500	-93.080925
290.039062	-92.429955
291.015625	-92.860512
291.992188	-92.210808
292.968750	-92.999077
293.945312	-91.915054
294.921875	-92.180000
295.898438	-92.260063
296.875000	-91.601700
297.851562	-91.191780
298.828125	-91.440514
299.804688	-91.787346
300.781250	-91.146439
301.757812	-91.152992
302.734375	-91.080765
303.710938	-91.113571
304.687500	-91.361763
305.664062	-91.238174
306.640625	-91.230515
307.617188	-90.585381
308.593750	-90.454247
309.570312	-90.184021
310.546875	-90.151222
311.523438	-90.247742
312.500000	-89.006683
313.476562	-89.977127
314.453125	-90.297768
315.429688	-89.978104
316.406250	-90.589500
317.382812	-88.368721
318.359375	-88.417542
319.335938	-89.108276
320.312500	-89.193298
321.289062	-89.323059
322.265625	-88.864647
323.242188	-88.918312
324.218750	-89.044678
325.195312	-89.829819
326.171875	-89.451820
327.148438	-89.795944
328.125000	-89.407387
329.101562	-89.357101
330.078125	-89.592743
331.054688	-89.378746
332.031250	-89.339294
333.007812	-90.213127
333.984375	-89.902222
334.960938	-89.672058
335.937500	-90.147606
336.914062	-89.966515
337.890625	-90.321297
338.867188	-89.890022
339.843750	-89.409187
340.820312	-90.281898
341.796875	-90.523529
342.773438	-89.625275
343.750000	-89.658012
344.726562	-90.264305
345.703125	-89.971336
346.679688	-89.525368
347.656250	-89.968597
348.632812	-90.544327
349.609375	-90.289955
350.585938	-89.655052
351.562500	-89.708282
352.539062	-89.699852
353.515625	-89.599655
354.492188	-89.732948
355.468750	-89.398888
356.445312	-89.214653
357.421875	-89.510101
358.398438	-89.982437
359.375000	-89.318886
360.351562	-88.612595
361.328125	-89.416756
362.304688	-88.189331
363.281250	-88.714188
364.257812	-89.539589
365.234375	-88.497620
366.210938	-89.337646
367.187500	-88.895012
368.164062	-88.654877
369.140625	-89.086830
370.117188	-88.791481
371.093750	-88.465363
372.070312	-87.794464
373.046875	-88.100975
374.023438	-87.618919
375.000000	-88.497505
375.976562	-87.911469
376.953125	-88.277786
377.929688	-87.703995
378.906250	-87.568916
379.882812	-87.264847
380.859375	-87.616440
381.835938	-87.968567
382.812500	-87.988205
383.789062	-87.897858
384.765625	-87.449951
385.742188	-86.073982
386.718750	-87.820419
387.695312	-87.726677
388.671875	-86.897095
389.648438	-87.247795
390.625000	-86.373627
391.601562	-86.411995
392.578125	-86.174774
393.554688	-86.262581
394.531250	-86.702003
395.507812	-86.190582
396.484375	-86.266571
397.460938	-85.955521
398.437500	-85.728287
399.414062	-85.994286
400.390625	-86.368111
401.367188	-86.808716
402.343750	-85.843491
403.320312	-85.910706
404.296875	-85.821854
405.273438	-85.884796
406.250000	-84.830284
407.226562	-84.750542
408.203125	-85.051590
409.179688	-84.907997
410.156250	-85.025894
411.132812	-84.333374
412.109375	-85.450699
413.085938	-85.302673
414.062500	-84.594254
415.039062	-85.095001
416.015625	-84.377243
416.992188	-84.128189
417.968750	-84.288963
418.945312	-84.015137
419.921875	-84.228973
420.898438	-84.413750
421.875000	-84.473099
422.851562	-84.899147
423.828125	-84.756493
424.804688	-84.558968
425.781250	-84.364113
426.757812	-84.992706
427.734375	-85.341324
428.710938	-84.299866
429.687500	-84.527954
430.664062	-84.763901
431.640625	-83.994751
432.617188	-85.240761
433.593750	-86.223167
434.570312	-85.170166
435.546875	-84.852364
436.523438	-85.058701
437.500000	-85.450066
438.476562	-85.169189
439.453125	-85.447769
440.429688	-85.423973
441.406250	-84.941780
442.382812	-85.048943
443.359375	-84.398827
444.335938	-84.782211
445.312500	-84.023537
446.289062	-84.797699
447.265625	-83.817017
448.242188	-83.432350
449.218750	-83.472977
450.195312	-83.694267
451.171875	-83.711288
452.148438	-84.103889
453.125000	-83.223564
454.101562	-83.839935
455.078125	-82.966614
456.054688	-82.901779
457.031250	-83.536507
458.007812	-83.146080
458.984375	-83.447853
459.960938	-82.552422
460.937500	-83.087357
461.914062	-83.190544
462.890625	-83.138725
463.867188	-82.434555
464.843750	-83.428001
465.820312	-83.605827
466.796875	-83.548683
467.773438	-83.525230
468.750000	-83.326767
469.726562	-83.544571
470.703125	-82.637077
471.679688	-83.665253
472.656250	-83.938805
473.632812	-83.675865
474.609375	-84.199242
475.585938	-84.557770
476.562500	-83.981010
477.539062	-84.195259
478.515625	-83.530823
479.492188	-84.260567
480.468750	-84.319733
481.445312	-84.332108
482.421875	-83.335670
483.398438	-84.424194
484.375000	-84.897415
485.351562	-84.993065
486.328125	-84.062164
487.304688	-84.922211
488.281250	-84.767097
489.257812	-84.101562
490.234375	-85.239746
491.210938	-84.263802
492.187500	-84.742584
493.164062	-84.529755
494.140625	-84.636658
495.117188	-85.996071
496.093750	-85.107704
497.070312	-85.082291
498.046875	-85.073166
499.023438	-84.351227
500.000000	-85.380165
500.976562	-84.234703
501.953125	-84.725594
502.929688	-84.864571
503.906250	-84.575417
504.882812	-84.667770
505.859375	-85.265373
506.835938	-85.018440
507.812500	-84.947762
508.789062	-85.602768
509.765625	-84.934601
510.742188	-84.250130
511.718750	-84.523201
512.695312	-84.571182
513.671875	-84.485764
514.648438	-83.901627
515.625000	-84.215492
516.601562	-84.338310
517.578125	-85.129906
518.554688	-84.667145
519.531250	-84.082207
520.507812	-84.078026
521.484375	-85.034424
522.460938	-84.454170
523.437500	-83.927086
524.414062	-83.705925
525.390625	-83.633354
526.367188	-83.920906
527.343750	-84.083687
528.320312	-83.542221
529.296875	-83.752632
530.273438	-83.441666
531.250000	-84.317574
532.226562	-83.763962
533.203125	-83.172333
534.179688	-83.181618
535.156250	-83.937157
536.132812	-83.293793
537.109375	-83.656174
538.085938	-83.065651
539.062500	-83.144592
540.039062	-82.838486
541.015625	-83.288895
541.992188	-82.446770
542.968750	-83.110603
543.945312	-82.224876
544.921875	-82.624252
545.898438	-82.469879
546.875000	-82.612442
547.851562	-82.419617
548.828125	-83.055458
549.804688	-81.913239
550.781250	-81.672424
551.757812	-82.122719
552.734375	-81.726921
553.710938	-81.693024
554.687500	-81.359634
555.664062	-81.253807
556.640625	-80.794792
557.617188	-81.195190
558.593750	-80.729622
559.570312	-79.883560
560.546875	-80.232040
561.523438	-79.634178
562.500000	-80.162285
563.476562	-79.761848
564.453125	-79.679947
565.429688	-79.044983
566.406250	-79.341049
567.382812	-78.965324
568.359375	-78.749573
569.335938	-78.329506
570.312500	-78.234016
571.289062	-78.057854
572.265625	-77.575089
573.242188	-78.092972
574.218750	-78.076180
575.195312	-78.145836
576.171875	-77.080170
577.148438	-76.666626
578.125000	-77.048172
579.101562	-77.179527
580.078125	-77.520813
581.054688	-76.925232
582.031250	-76.947495
583.007812	-76.899979
583.984375	-77.174721
584.960938	-76.112740
585.937500	-77.109047
586.914062	-76.539444
587.890625	-76.057556
588.867188	-76.289742
589.843750	-75.960823
590.820312	-77.384644
591.796875	-76.737129
592.773438	-76.988708
593.750000	-76.922882
594.726562	-76.648186
595.703125	-77.160393
596.679688	-77.235870
597.656250	-77.441887
598.632812	-77.284294
599.609375	-76.123077
600.585938	-77.257355
601.562500	-77.818222
602.539062	-77.957436
603.515625	-78.126892
604.492188	-77.546623
605.468750	-78.427826
606.445312	-77.863800
607.421875	-77.702209
608.398438	-78.505722
609.375000	-77.512642
610.351562	-78.857010
611.328125	-78.482048
612.304688	-78.648140
613.281250	-78.883270
614.257812	-79.502846
615.234375	-79.088821
616.210938	-78.714294
617.187500	-78.279930
618.164062	-79.487831
619.140625	-79.043724
620.117188	-78.872261
621.093750	-79.377754
622.070312	-79.905174
623.046875	-79.111923
624.023438	-79.605835
625.000000	-79.668549
625.976562	-80.055847
626.953125	-79.908173
627.929688	-79.479500
628.906250	-79.707901
629.882812	-79.472511
630.859375	-79.702507
631.835938	-79.442795
632.812500	-80.485786
633.789062	-79.712807
634.765625	-79.883804
635.742188	-79.616081
636.718750	-80.779373
637.695312	-80.210144
638.671875	-80.275093
639.648438	-80.756966
640.625000	-80.040359
641.601562	-80.187782
642.578125	-80.480179
643.554688	-80.706436
644.531250	-79.568558
645.507812	-80.384094
646.484375	-80.606735
647.460938	-81.234406
648.437500	-81.232887
649.414062	-81.201096
650.390625	-80.530846
651.367188	-80.900650
652.343750	-80.387146
653.320312	-80.388451
654.296875	-80.955803
655.273438	-80.608452
656.250000	-80.782730
657.226562	-80.719597
658.203125	-80.396057
659.179688	-81.574257
660.156250	-81.524673
661.132812	-81.383110
662.109375	-80.885056
663.085938	-81.258057
664.062500	-81.202339
665.039062	-81.616211
666.015625	-81.163780
666.992188	-81.315865
667.968750	-80.533447
668.945312	-81.089264
669.921875	-79.708740
670.898438	-80.875313
671.875000	-80.274437
672.851562	-80.292892
673.828125	-81.073776
674.804688	-80.325111
675.781250	-80.611023
676.757812	-80.689720
677.734375	-80.241493
678.710938	-80.713493
679.687500	-79.644470
680.664062	-79.756615
681.640625	-80.054840
682.617188	-80.904984
683.593750	-80.690926
684.570312	-80.654831
685.546875	-80.041672
686.523438	-80.476555
687.500000	-80.569756
688.476562	-79.461113
689.453125	-79.841476
690.429688	-79.911125
691.406250	-79.858414
692.382812	-79.128609
693.359375	-79.358665
694.335938	-79.611809
695.312500	-79.720818
696.289062	-78.776543
697.265625	-78.366821
698.242188	-78.689499
699.218750	-78.064034
700.195312	-77.672668
701.171875	-78.490669
702.148438	-78.489723
703.125000	-77.919548
704.101562	-77.811386
705.078125	-77.633316
706.054688	-77.702881
707.031250	-77.935249
708.007812	-76.990021
708.984375	-77.343643
709.960938	-78.124657
710.937500	-77.432938
711.914062	-76.599213
712.890625	-77.006363
713.867188	-76.201988
714.843750	-77.059105
715.820312	-76.736916
716.796875	-76.631844
717.773438	-75.619461
718.750000	-75.236313
719.726562	-75.331711
720.703125	-76.244659
721.679688	-75.510681
722.656250	-75.262512
723.632812	-75.308739
724.609375	-74.766335
725.585938	-74.430176
726.562500	-74.239555
727.539062	-74.021492
728.515625	-73.913513
729.492188	-74.627899
730.468750	-74.364273
731.445312	-74.611420
732.421875	-75.020073
733.398438	-73.904945
734.375000	-73.461304
735.351562	-73.561958
736.328125	-73.407013
737.304688	-72.800987
738.281250	-72.442673
739.257812	-72.567284
740.234375	-72.428284
741.210938	-72.700043
742.187500	-72.738777
743.164062	-72.179909
744.140625	-72.843567
745.117188	-72.512032
746.093750	-72.048195
747.070312	-71.868660
748.046875	-72.479591
749.023438	-71.834930
750.000000	-70.770943
750.976562	-71.183296
751.953125	-72.031853
752.929688	-71.224777
753.906250	-71.262955
754.882812	-71.442253
755.859375	-70.676033
756.835938	-71.319550
757.812500	-72.432571
758.789062	-70.737228
759.765625	-71.082031
760.742188	-70.691643
761.718750	-71.324234
762.695312	-71.378716
763.671875	-71.312340
764.648438	-72.029655
765.625000	-71.954887
766.601562	-71.191551
767.578125	-71.999962
768.554688	-72.613380
769.531250	-71.940994
770.507812	-72.372940
771.484375	-72.182663
772.460938	-71.907181
773.437500	-72.187050
774.414062	-73.318787
775.390625	-73.314903
776.367188	-72.720505
777.343750	-73.540085
778.320312	-73.470848
779.296875	-72.733810
780.273438	-73.108017
781.250000	-73.966110
782.226562	-73.830215
783.203125	-73.083565
784.179688	-73.833183
785.156250	-73.807243
786.132812	-73.854164
787.109375	-74.636269
788.085938	-73.744583
789.062500	-75.051178
790.039062	-73.502968
791.015625	-73.875061
791.992188	-74.751953
792.968750	-74.554375
793.945312	-74.847946
794.921875	-75.204781
795.898438	-75.177223
796.875000	-75.243340
797.851562	-75.253815
798.828125	-75.360771
799.804688	-75.403229
800.781250	-75.129051
801.757812	-75.837212
802.734375	-75.589294
803.710938	-76.022072
804.687500	-75.737068
805.664062	-76.260780
806.640625	-75.410301
807.617188	-75.575775
808.593750	-75.644463
809.570312	-76.105904
810.546875	-75.491150
811.523438	-75.613884
812.500000	-75.499573
813.476562	-76.230934
814.453125	-76.148369
815.429688	-76.746788
816.406250	-75.745163
817.382812	-76.468796
818.359375	-76.468773
819.335938	-75.754585
820.312500	-75.797676
821.289062	-75.380890
822.265625	-75.443184
823.242188	-75.637573
824.218750	-75.201042
825.195312	-75.728073
826.171875	-76.079727
827.148438	-76.376823
828.125000	-75.548386
829.101562	-76.007011
830.078125	-75.879845
831.054688	-76.309319
832.031250	-76.321236
833.007812	-76.148140
833.984375	-75.989563
834.960938	-75.571182
835.937500	-75.723190
836.914062	-76.473747
837.890625	-75.394875
838.867188	-75.919884
839.843750	-75.935982
840.820312	-75.017654
841.796875	-75.072548
842.773438	-75.665863
843.750000	-75.593430
844.726562	-75.099861
845.703125	-75.700676
846.679688	-74.824402
847.656250	-75.320251
848.632812	-75.725929
849.609375	-74.399155
850.585938	-74.843880
851.562500	-75.086716
852.539062	-75.091805
853.515625	-75.605408
854.492188	-75.040024
855.468750	-73.922127
856.445312	-74.743553
857.421875	-73.720253
858.398438	-74.065155
859.375000	-74.313950
860.351562	-73.540741
861.328125	-74.235161
862.304688	-73.637108
863.281250	-73.753532
864.257812	-73.723328
865.234375	-73.767929
866.210938	-73.171555
867.187500	-72.790054
868.164062	-73.771255
869.140625	-73.512718
870.117188	-72.557335
871.093750	-73.369133
872.070312	-72.994110
873.046875	-72.663528
874.023438	-72.151703
875.000000	-72.388054
875.976562	-72.993019
876.953125	-72.409767
877.929688	-72.199211
878.906250	-72.088387
879.882812	-71.925110
880.859375	-72.733582
881.835938	-71.318298
882.812500	-71.385803
883.789062	-71.223122
884.765625	-70.691635
885.742188	-70.343109
886.718750	-69.930054
887.695312	-70.549500
888.671875	-70.412727
889.648438	-70.034508
890.625000	-68.632538
891.601562	-69.078178
892.578125	-69.536201
893.554688	-69.638657
894.531250	-68.707230
895.507812	-68.684753
896.484375	-69.114357
897.460938	-68.914383
898.437500	-68.616623
899.414062	-68.901680
900.390625	-68.209541
901.367188	-68.423172
902.343750	-67.055992
903.320312	-67.047607
904.296875	-67.565895
905.273438	-67.463280
906.250000	-66.984299
907.226562	-66.586914
908.203125	-66.781738
909.179688	-66.765625
910.156250	-66.954712
911.132812	-65.563049
912.109375	-65.719185
913.085938	-65.711594
914.062500	-66.693123
915.039062	-65.689072
916.015625	-66.095932
916.992188	-66.694496
917.968750	-66.782188
918.945312	-66.416275
919.921875	-65.973198
920.898438	-65.846886
921.875000	-65.836594
922.851562	-65.412910
923.828125	-66.180557
924.804688	-66.146080
925.781250	-66.343590
926.757812	-65.890060
927.734375	-66.429947
928.710938	-66.369736
929.687500	-66.514847
930.664062	-66.959709
931.640625	-65.540085
932.617188	-66.512093
933.593750	-67.737083
934.570312	-67.316887
935.546875	-66.435112
936.523438	-67.622154
937.500000	-67.676208
938.476562	-67.426193
939.453125	-66.877991
940.429688	-68.117897
941.406250	-67.838264
942.382812	-68.516907
943.359375	-67.892731
944.335938	-67.476753
945.312500	-67.995216
946.289062	-68.803017
947.265625	-68.619255
948.242188	-68.639473
949.218750	-69.592789
950.195312	-68.656296
951.171875	-68.854546
952.148438	-69.527901
953.125000	-69.189911
954.101562	-68.862183
955.078125	-70.232651
956.054688	-70.149765
957.031250	-70.019676
958.007812	-69.867424
958.984375	-70.266571
959.960938	-69.955025
960.937500	-69.639870
961.914062	-69.930435
962.890625	-70.006096
963.867188	-70.549957
964.843750	-69.115715
965.820312	-70.143799
966.796875	-70.402199
967.773438	-70.233185
968.750000	-70.032852
969.726562	-70.694237
970.703125	-71.069572
971.679688	-71.247795
972.656250	-71.310890
973.632812	-71.236496
974.609375	-71.601486
975.585938	-71.303047
976.562500	-70.806549
977.539062	-71.230896
978.515625	-70.570595
979.492188	-71.301254
980.468750	-71.106850
981.445312	-71.299889
982.421875	-71.376686
983.398438	-70.985504
984.375000	-71.113770
985.351562	-72.230583
986.328125	-71.653290
987.304688	-71.001167
988.281250	-70.677719
989.257812	-70.683762
990.234375	-72.384109
991.210938	-71.438545
992.187500	-71.549675
993.164062	-72.206039
994.140625	-71.886513
995.117188	-72.222603
996.093750	-72.550537
997.070312	-72.554596
998.046875	-72.145050
999.023438	-71.624619
1000.000000	-72.164406
1000.976562	-72.500633
1001.953125	-72.177536
1002.929688	-72.502640
1003.906250	-72.034897
1004.882812	-71.597244
1005.859375	-71.759918
1006.835938	-71.884575
1007.812500	-71.165550
1008.789062	-72.121162
1009.765625	-71.511467
1010.742188	-71.863403
1011.718750	-72.077484
1012.695312	-72.211700
1013.671875	-72.036346
1014.648438	-71.926132
1015.625000	-71.607018
1016.601562	-72.342896
1017.578125	-71.808464
1018.554688	-71.655518
1019.531250	-72.292152
1020.507812	-71.396179
1021.484375	-72.419357
1022.460938	-71.108078
1023.437500	-71.289864
1024.414062	-71.997772
1025.390625	-72.310875
1026.367188	-71.650131
1027.343750	-71.804764
1028.320312	-71.954224
1029.296875	-71.270287
1030.273438	-71.108559
1031.250000	-71.922905
1032.226562	-70.637787
1033.203125	-71.754333
1034.179688	-71.405579
1035.156250	-71.176201
1036.132812	-71.008446
1037.109375	-71.696846
1038.085938	-70.701271
1039.062500	-70.285965
1040.039062	-70.951477
1041.015625	-71.277908
1041.992188	-70.474060
1042.968750	-71.295700
1043.945312	-70.476013
1044.921875	-70.856583
1045.898438	-71.367645
1046.875000	-70.703346
1047.851562	-70.151978
1048.828125	-70.505417
1049.804688	-69.666817
1050.781250	-70.285637
1051.757812	-70.111046
1052.734375	-69.700142
1053.710938	-70.972214
1054.687500	-70.073227
1055.664062	-69.632744
1056.640625	-69.623383
1057.617188	-69.784637
1058.593750	-69.388580
1059.570312	-69.283600
1060.546875	-69.475182
1061.523438	-68.898491
1062.500000	-68.841393
1063.476562	-69.203613
1064.453125	-69.382118
1065.429688	-68.831978
1066.406250	-68.837578
1067.382812	-68.996414
1068.359375	-68.178299
1069.335938	-68.295883
1070.312500	-68.541466
1071.289062	-68.978218
1072.265625	-68.532051
1073.242188	-68.840355
1074.218750	-68.772354
1075.195312	-68.200836
1076.171875	-67.902573
1077.148438	-67.526718
1078.125000	-68.293732
1079.101562	-68.052292
1080.078125	-67.698853
1081.054688	-67.325775
1082.031250	-67.674202
1083.007812	-67.683731
1083.984375	-67.241226
1084.960938	-67.313293
1085.937500	-66.759903
1086.914062	-67.623337
1087.890625	-67.241417
1088.867188	-66.534187
1089.843750	-66.453163
1090.820312	-67.601486
1091.796875	-66.902420
1092.773438	-66.647301
1093.750000	-67.109810
1094.726562	-67.598640
1095.703125	-66.748901
1096.679688	-67.460739
1097.656250	-68.253044
1098.632812	-67.694649
1099.609375	-68.038132
1100.585938	-67.403862
1101.562500	-68.115776
1102.539062	-68.891541
1103.515625	-67.824295
1104.492188	-68.575722
1105.468750	-68.958542
1106.445312	-68.966522
1107.421875	-69.519127
1108.398438	-69.301750
1109.375000	-69.189713
1110.351562	-70.460541
1111.328125	-69.716911
1112.304688	-70.374496
1113.281250	-69.746536
1114.257812	-70.235603
1115.234375	-69.986069
1116.210938	-70.763107
1117.187500	-71.068092
1118.164062	-72.020782
1119.140625	-71.704048
1120.117188	-71.577957
1121.093750	-71.599060
1122.070312	-72.386253
1123.046875	-72.508614
1124.023438	-72.758385
1125.000000	-72.770561
1125.976562	-72.561363
1126.953125	-72.397659
1127.929688	-73.066986
1128.906250	-72.733711
1129.882812	-73.845589
1130.859375	-73.360504
1131.835938	-73.045181
1132.812500	-73.691879
1133.789062	-74.433113
1134.765625	-74.926285
1135.742188	-75.336868
1136.718750	-74.569748
1137.695312	-74.762451
1138.671875	-75.184753
1139.648438	-74.772133
1140.625000	-76.056145
1141.601562	-75.162613
1142.578125	-75.547401
1143.554688	-75.405922
1144.531250	-75.838791
1145.507812	-75.584381
1146.484375	-76.085571
1147.460938	-76.447014
1148.437500	-76.830887
1149.414062	-75.996002
1150.390625	-76.188507
1151.367188	-76.254013
1152.343750	-76.551346
1153.320312	-76.126053
1154.296875	-76.184708
1155.273438	-76.583900
1156.250000	-76.673065
1157.226562	-76.253296
1158.203125	-76.404266
1159.179688	-76.257256
1160.156250	-76.399780
1161.132812	-77.101738
1162.109375	-76.985069
1163.085938	-77.470314
1164.062500	-76.961746
1165.039062	-77.765114
1166.015625	-77.649559
1166.992188	-78.004234
1167.968750	-77.268318
1168.945312	-77.743645
1169.921875	-77.659843
1170.898438	-77.410057
1171.875000	-77.528160
1172.851562	-77.539070
1173.828125	-78.400581
1174.804688	-78.896423
1175.781250	-78.286865
1176.757812	-78.193680
1177.734375	-78.757202
1178.710938	-77.843872
1179.687500	-78.041382
1180.664062	-78.678505
1181.640625	-78.340706
1182.617188	-78.792404
1183.593750	-78.939583
1184.570312	-78.525009
1185.546875	-78.091530
1186.523438	-78.689697
1187.500000	-79.141479
1188.476562	-78.043221
1189.453125	-78.704750
1190.429688	-78.888458
1191.406250	-78.887238
1192.382812	-79.011475
1193.359375	-78.510307
1194.335938	-78.416183
1195.312500	-78.155273
1196.289062	-78.504875
1197.265625	-78.964111
1198.242188	-78.023186
1199.218750	-78.316048
1200.195312	-77.831184
1201.171875	-78.315384
1202.148438	-77.595520
1203.125000	-78.708008
1204.101562	-78.667885
1205.078125	-78.735344
1206.054688	-77.951408
1207.031250	-78.378769
1208.007812	-78.091431
1208.984375	-77.503464
1209.960938	-78.053696
1210.937500	-77.703659
1211.914062	-78.104118
1212.890625	-78.325539
1213.867188	-77.439125
1214.843750	-78.362061
1215.820312	-76.845451
1216.796875	-76.667320
1217.773438	-76.912613
1218.750000	-76.684311
1219.726562	-77.125595
1220.703125	-77.646545
1221.679688	-77.189438
1222.656250	-77.370651
1223.632812	-77.164963
1224.609375	-76.674240
1225.585938	-76.715294
1226.562500	-77.140327
1227.539062	-76.882858
1228.515625	-75.927399
1229.492188	-76.169273
1230.468750	-75.839966
1231.445312	-76.352020
1232.421875	-75.929268
1233.398438	-75.555794
1234.375000	-76.203255
1235.351562	-76.222778
1236.328125	-76.274643
1237.304688	-76.022942
1238.281250	-75.897926
1239.257812	-75.727898
1240.234375	-75.071182
1241.210938	-75.629265
1242.187500	-75.005409
1243.164062	-75.831413
1244.140625	-74.663208
1245.117188	-74.976547
1246.093750	-74.690765
1247.070312	-74.213318
1248.046875	-74.610893
1249.023438	-73.922295
1250.000000	-75.199448
1250.976562	-74.684731
1251.953125	-74.525398
1252.929688	-74.756271
1253.906250	-74.251823
1254.882812	-73.708000
1255.859375	-73.645180
1256.835938	-73.610519
1257.812500	-74.350319
1258.789062	-73.937164
1259.765625	-73.925407
1260.742188	-74.154831
1261.718750	-74.373039
1262.695312	-73.734093
1263.671875	-74.302353
1264.648438	-74.835884
1265.625000	-74.442749
1266.601562	-74.909332
1267.578125	-74.210297
1268.554688	-74.124756
1269.531250	-75.037193
1270.507812	-74.637657
1271.484375	-74.834702
1272.460938	-74.582588
1273.437500	-75.646469
1274.414062	-75.340866
1275.390625	-76.220505
1276.367188	-75.393852
1277.343750	-75.324005
1278.320312	-75.756569
1279.296875	-76.279587
1280.273438	-75.823540
1281.250000	-74.950012
1282.226562	-76.896378
1283.203125	-76.668800
1284.179688	-76.141502
1285.156250	-76.777954
1286.132812	-77.040024
1287.109375	-77.015915
1288.085938	-77.431625
1289.062500	-77.706596
1290.039062	-78.703728
1291.015625	-77.840591
1291.992188	-78.141800
1292.968750	-78.126228
1293.945312	-78.630562
1294.921875	-78.615196
1295.898438	-78.411057
1296.875000	-78.643158
1297.851562	-78.624962
1298.828125	-79.006027
1299.804688	-78.670021
1300.781250	-78.920265
1301.757812	-79.759804
1302.734375	-79.187111
1303.710938	-79.940598
1304.687500	-80.021149
1305.664062	-79.733406
1306.640625	-80.173111
1307.617188	-80.415627
1308.593750	-80.470108
1309.570312	-80.333237
1310.546875	-81.042732
1311.523438	-81.388382
1312.500000	-81.204742
1313.476562	-81.510368
1314.453125	-81.955872
1315.429688	-81.672028
1316.406250	-81.514374
1317.382812	-81.819328
1318.359375	-81.823982
1319.335938	-81.715881
1320.312500	-82.326805
1321.289062	-81.830482
1322.265625	-82.184288
1323.242188	-82.087952
1324.218750	-81.989853
1325.195312	-81.275803
1326.171875	-82.394508
1327.148438	-82.633476
1328.125000	-82.042480
1329.101562	-81.770401
1330.078125	-82.654015
1331.054688	-82.739410
1332.031250	-82.512939
1333.007812	-82.406921
1333.984375	-82.999863
1334.960938	-83.238884
1335.937500	-83.017441
1336.914062	-83.261307
1337.890625	-83.197868
1338.867188	-83.649818
1339.843750	-83.897667
1340.820312	-83.474617
1341.796875	-83.535034
1342.773438	-83.197174
1343.750000	-83.074997
1344.726562	-83.507179
1345.703125	-84.161247
1346.679688	-83.541817
1347.656250	-82.916588
1348.632812	-84.003098
1349.609375	-83.701614
1350.585938	-83.462807
1351.562500	-83.023148
1352.539062	-83.599419
1353.515625	-83.882751
1354.492188	-82.792076
1355.468750	-82.517677
1356.445312	-83.080009
1357.421875	-83.395546
1358.398438	-83.167686
1359.375000	-83.199043
1360.351562	-82.479675
1361.328125	-83.303337
1362.304688	-83.037743
1363.281250	-83.099411
1364.257812	-83.654572
1365.234375	-83.482788
1366.210938	-82.852142
1367.187500	-83.050117
1368.164062	-82.790169
1369.140625	-83.686470
1370.117188	-83.069702
1371.093750	-83.151520
1372.070312	-82.819847
1373.046875	-83.385223
1374.023438	-82.754356
1375.000000	-82.647736
1375.976562	-83.356224
1376.953125	-83.066383
1377.929688	-82.857689
1378.906250	-82.319626
1379.882812	-82.317200
1380.859375	-82.051735
1381.835938	-82.311005
1382.812500	-82.454826
1383.789062	-82.079956
1384.765625	-81.676903
1385.742188	-82.065643
1386.718750	-82.077873
1387.695312	-82.326599
1388.671875	-82.524261
1389.648438	-81.972176
1390.625000	-81.430298
1391.601562	-81.885979
1392.578125	-81.737999
1393.554688	-81.390053
1394.531250	-81.308868
1395.507812	-81.160675
1396.484375	-81.378532
1397.460938	-81.243622
1398.437500	-82.121689
1399.414062	-81.323608
1400.390625	-80.411377
1401.367188	-80.546219
1402.343750	-81.368980
1403.320312	-81.049950
1404.296875	-81.220726
1405.273438	-80.525185
1406.250000	-80.509468
1407.226562	-80.108337
1408.203125	-80.910103
1409.179688	-80.739143
1410.156250	-80.209763
1411.132812	-80.606071
1412.109375	-79.370316
1413.085938	-80.490395
1414.062500	-79.962387
1415.039062	-79.497490
1416.015625	-79.034836
1416.992188	-79.702141
1417.968750	-80.087257
1418.945312	-79.050186
1419.921875	-79.707619
1420.898438	-79.210732
1421.875000	-78.816452
1422.851562	-78.217972
1423.828125	-79.437325
1424.804688	-78.934303
1425.781250	-79.207428
1426.757812	-78.316154
1427.734375	-78.979599
1428.710938	-78.451660
1429.687500	-78.604012
1430.664062	-78.602509
1431.640625	-78.749969
1432.617188	-79.046478
1433.593750	-79.494179
1434.570312	-79.198730
1435.546875	-78.850395
1436.523438	-78.363235
1437.500000	-78.799515
1438.476562	-79.187935
1439.453125	-78.830650
1440.429688	-78.861000
1441.406250	-78.745155
1442.382812	-78.870018
1443.359375	-79.538666
1444.335938	-79.185989
1445.312500	-79.265617
1446.289062	-79.267952
1447.265625	-80.010933
1448.242188	-80.227730
1449.218750	-80.177483
1450.195312	-80.271889
1451.171875	-80.182037
1452.148438	-79.707695
1453.125000	-79.539154
1454.101562	-79.317787
1455.078125	-80.028473
1456.054688	-80.160614
1457.031250	-79.668198
1458.007812	-80.621399
1458.984375	-81.424217
1459.960938	-81.698555
1460.937500	-80.742668
1461.914062	-81.390251
1462.890625	-81.743500
1463.867188	-81.928764
1464.843750	-81.872025
1465.820312	-82.071251
1466.796875	-81.562012
1467.773438	-82.075226
1468.750000	-82.304771
1469.726562	-82.224442
1470.703125	-81.673187
1471.679688	-82.018364
1472.656250	-82.445671
1473.632812	-82.938103
1474.609375	-81.872635
1475.585938	-82.513672
1476.562500	-81.648277
1477.539062	-81.908798
1478.515625	-82.308228
1479.492188	-83.114883
1480.468750	-82.615501
1481.445312	-83.072548
1482.421875	-83.508507
1483.398438	-82.976242
1484.375000	-82.975525
1485.351562	-82.526604
1486.328125	-82.669472
1487.304688	-83.016991
1488.281250	-82.940964
1489.257812	-84.120995
1490.234375	-83.231506
1491.210938	-83.463463
1492.187500	-83.429649
1493.164062	-83.270050
1494.140625	-83.527000
1495.117188	-83.563232
1496.093750	-83.712700
1497.070312	-83.583305
1498.046875	-83.573196
1499.023438	-83.499626
1500.000000	-84.283539
1500.976562	-84.897820
1501.953125	-84.165550
1502.929688	-84.196602
1503.906250	-84.051460
1504.882812	-83.971878
1505.859375	-83.448013
1506.835938	-84.195877
1507.812500	-83.951157
1508.789062	-83.676018
1509.765625	-84.389236
1510.742188	-83.311577
1511.718750	-83.908249
1512.695312	-84.123627
1513.671875	-83.780449
1514.648438	-84.401627
1515.625000	-84.724571
1516.601562	-84.195885
1517.578125	-83.789986
1518.554688	-84.113182
1519.531250	-84.361206
1520.507812	-84.204903
1521.484375	-84.861061
1522.460938	-84.549149
1523.437500	-84.133034
1524.414062	-84.295097
1525.390625	-83.415230
1526.367188	-83.813179
1527.343750	-84.629395
1528.320312	-83.852722
1529.296875	-84.543480
1530.273438	-84.218399
1531.250000	-84.188126
1532.226562	-84.411201
1533.203125	-84.438919
1534.179688	-84.349792
1535.156250	-84.017319
1536.132812	-83.855171
1537.109375	-83.995712
1538.085938	-83.868141
1539.062500	-84.096214
1540.039062	-83.546867
1541.015625	-83.123245
1541.992188	-83.762154
1542.968750	-84.229225
1543.945312	-83.608704
1544.921875	-84.013809
1545.898438	-84.102364
1546.875000	-83.532715
1547.851562	-83.956612
1548.828125	-84.360451
1549.804688	-84.105812
1550.781250	-83.277374
1551.757812	-83.750999
1552.734375	-83.739540
1553.710938	-83.304550
1554.687500	-83.062462
1555.664062	-83.256310
1556.640625	-83.532349
1557.617188	-83.037926
1558.593750	-84.005722
1559.570312	-83.278458
1560.546875	-83.119484
1561.523438	-83.235191
1562.500000	-83.077393
1563.476562	-83.007805
1564.453125	-82.780792
1565.429688	-82.705017
1566.406250	-82.378998
1567.382812	-82.270599
1568.359375	-82.723061
1569.335938	-83.543762
1570.312500	-83.282745
1571.289062	-82.625198
1572.265625	-82.353401
1573.242188	-82.129967
1574.218750	-81.578217
1575.195312	-81.329430
1576.171875	-81.412796
1577.148438	-81.797226
1578.125000	-82.067215
1579.101562	-81.653481
1580.078125	-81.431213
1581.054688	-80.631279
1582.031250	-81.178352
1583.007812	-81.143822
1583.984375	-81.207787
1584.960938	-81.435051
1585.937500	-80.751610
1586.914062	-80.167633
1587.890625	-80.699585
1588.867188	-80.631004
1589.843750	-81.213005
1590.820312	-80.611443
1591.796875	-81.139351
1592.773438	-80.367378
1593.750000	-79.319740
1594.726562	-80.350624
1595.703125	-80.643105
1596.679688	-79.655396
1597.656250	-79.852837
1598.632812	-79.790253
1599.609375	-79.793175
1600.585938	-79.894806
1601.562500	-79.486542
1602.539062	-80.452782
1603.515625	-80.234543
1604.492188	-79.587440
1605.468750	-79.028152
1606.445312	-80.000862
1607.421875	-80.308067
1608.398438	-80.335426
1609.375000	-80.510918
1610.351562	-79.672867
1611.328125	-79.552788
1612.304688	-80.200188
1613.281250	-80.259438
1614.257812	-79.445412
1615.234375	-80.166054
1616.210938	-81.173073
1617.187500	-80.063820
1618.164062	-79.959518
1619.140625	-80.104469
1620.117188	-80.448158
1621.093750	-80.173500
1622.070312	-81.304497
1623.046875	-81.301254
1624.023438	-81.581200
1625.000000	-81.096436
1625.976562	-80.694435
1626.953125	-80.523125
1627.929688	-81.111839
1628.906250	-81.693886
1629.882812	-81.702759
1630.859375	-81.297859
1631.835938	-81.754593
1632.812500	-81.149406
1633.789062	-81.937263
1634.765625	-81.505951
1635.742188	-81.735626
1636.718750	-81.696281
1637.695312	-82.488724
1638.671875	-82.130707
1639.648438	-82.068130
1640.625000	-82.137009
1641.601562	-82.474113
1642.578125	-81.961815
1643.554688	-82.118622
1644.531250	-82.098366
1645.507812	-81.687271
1646.484375	-82.659660
1647.460938	-82.669266
1648.437500	-83.155891
1649.414062	-82.418053
1650.390625	-82.429413
1651.367188	-82.525459
1652.343750	-82.785141
1653.320312	-83.655266
1654.296875	-83.116287
1655.273438	-82.945908
1656.250000	-83.559013
1657.226562	-82.993118
1658.203125	-84.248215
1659.179688	-83.868523
1660.156250	-83.852272
1661.132812	-83.719307
1662.109375	-83.691750
1663.085938	-83.752800
1664.062500	-83.120483
1665.039062	-83.333633
1666.015625	-84.019630
1666.992188	-84.008575
1667.968750	-83.226242
1668.945312	-82.888718
1669.921875	-83.209976
1670.898438	-83.339050
1671.875000	-83.154419
1672.851562	-83.890739
1673.828125	-82.973419
1674.804688	-83.392441
1675.781250	-83.409966
1676.757812	-83.500679
1677.734375	-83.438843
1678.710938	-82.939606
1679.687500	-83.762886
1680.664062	-84.036789
1681.640625	-83.074089
1682.617188	-83.186546
1683.593750	-83.131783
1684.570312	-83.723831
1685.546875	-83.663528
1686.523438	-83.513435
1687.500000	-83.702881
1688.476562	-83.560463
1689.453125	-83.916901
1690.429688	-83.111145
1691.406250	-83.550179
1692.382812	-83.775528
1693.359375	-83.453880
1694.335938	-83.728271
1695.312500	-83.136742
1696.289062	-83.623833
1697.265625	-82.227997
1698.242188	-82.682198
1699.218750	-82.818550
1700.195312	-82.899139
1701.171875	-83.142128
1702.148438	-82.596870
1703.125000	-82.649910
1704.101562	-83.348976
1705.078125	-83.799004
1706.054688	-83.641998
1707.031250	-82.809349
1708.007812	-82.678207
1708.984375	-83.506058
1709.960938	-83.129120
1710.937500	-82.881546
1711.914062	-82.624664
1712.890625	-82.582390
1713.867188	-82.751816
1714.843750	-82.730560
1715.820312	-82.128105
1716.796875	-82.677475
1717.773438	-82.637421
1718.750000	-82.052605
1719.726562	-81.493217
1720.703125	-82.057991
1721.679688	-82.155647
1722.656250	-82.289963
1723.632812	-82.300537
1724.609375	-82.171982
1725.585938	-82.207298
1726.562500	-81.738655
1727.539062	-81.690659
1728.515625	-82.334290
1729.492188	-81.985153
1730.468750	-81.316032
1731.445312	-81.987709
1732.421875	-81.498123
1733.398438	-81.167931
1734.375000	-81.566277
1735.351562	-81.287682
1736.328125	-80.715851
1737.304688	-80.767448
1738.281250	-81.300835
1739.257812	-80.058418
1740.234375	-80.684349
1741.210938	-80.447151
1742.187500	-80.811234
1743.164062	-80.718613
1744.140625	-81.215546
1745.117188	-80.878365
1746.093750	-80.625519
1747.070312	-80.838699
1748.046875	-80.161118
1749.023438	-80.586754
1750.000000	-80.210793
1750.976562	-80.264938
1751.953125	-79.879921
1752.929688	-80.449242
1753.906250	-79.917938
1754.882812	-79.887886
1755.859375	-80.316910
1756.835938	-79.232246
1757.812500	-78.457436
1758.789062	-79.348534
1759.765625	-79.216446
1760.742188	-79.411331
1761.718750	-79.135033
1762.695312	-79.113693
1763.671875	-78.973724
1764.648438	-78.715508
1765.625000	-78.470619
1766.601562	-78.066826
1767.578125	-77.351814
1768.554688	-78.104538
1769.531250	-78.273911
1770.507812	-78.087646
1771.484375	-77.483704
1772.460938	-78.438553
1773.437500	-77.608894
1774.414062	-78.419678
1775.390625	-77.801987
1776.367188	-78.668945
1777.343750	-78.609047
1778.320312	-78.076263
1779.296875	-78.025284
1780.273438	-78.308502
1781.250000	-78.851974
1782.226562	-77.616806
1783.203125	-78.053963
1784.179688	-78.032547
1785.156250	-78.249283
1786.132812	-77.765427
1787.109375	-77.058197
1788.085938	-77.756775
1789.062500	-77.871979
1790.039062	-78.511742
1791.015625	-78.079102
1791.992188	-77.658821
1792.968750	-77.957321
1793.945312	-78.001160
1794.921875	-78.093124
1795.898438	-78.953812
1796.875000	-78.084755
1797.851562	-77.977486
1798.828125	-78.564964
1799.804688	-78.576874
1800.781250	-78.619789
1801.757812	-78.835815
1802.734375	-78.489288
1803.710938	-79.370468
1804.687500	-78.390976
1805.664062	-78.518028
1806.640625	-78.900459
1807.617188	-78.339691
1808.593750	-78.748184
1809.570312	-79.953590
1810.546875	-79.151993
1811.523438	-79.133987
1812.500000	-78.616188
1813.476562	-78.857353
1814.453125	-78.483665
1815.429688	-78.645378
1816.406250	-80.230637
1817.382812	-78.875679
1818.359375	-79.206345
1819.335938	-79.623917
1820.312500	-79.096786
1821.289062	-78.918213
1822.265625	-79.000565
1823.242188	-79.869431
1824.218750	-79.902115
1825.195312	-79.528549
1826.171875	-79.811798
1827.148438	-79.645142
1828.125000	-80.153564
1829.101562	-80.214584
1830.078125	-79.399773
1831.054688	-79.549004
1832.031250	-80.024704
1833.007812	-80.454422
1833.984375	-80.628815
1834.960938	-80.224243
1835.937500	-79.751373
1836.914062	-80.723709
1837.890625	-80.062401
1838.867188	-79.961205
1839.843750	-80.011421
1840.820312	-79.564270
1841.796875	-80.303146
1842.773438	-80.436859
1843.750000	-80.349190
1844.726562	-79.952209
1845.703125	-80.159195
1846.679688	-80.151848
1847.656250	-80.169937
1848.632812	-80.380791
1849.609375	-79.661850
1850.585938	-80.038109
1851.562500	-80.241386
1852.539062	-80.765114
1853.515625	-80.595222
1854.492188	-80.327698
1855.468750	-79.917496
1856.445312	-79.390869
1857.421875	-80.162598
1858.398438	-80.082710
1859.375000	-80.441139
1860.351562	-80.374031
1861.328125	-80.997337
1862.304688	-79.994743
1863.281250	-80.225548
1864.257812	-81.240738
1865.234375	-80.358459
1866.210938	-80.210754
1867.187500	-80.401169
1868.164062	-80.242210
1869.140625	-80.392487
1870.117188	-80.013504
1871.093750	-80.289917
1872.070312	-79.938484
1873.046875	-80.365189
1874.023438	-79.701202
1875.000000	-79.600288
1875.976562	-79.039787
1876.953125	-79.420433
1877.929688	-79.519829
1878.906250	-78.954338
1879.882812	-79.904221
1880.859375	-79.435188
1881.835938	-79.082779
1882.812500	-78.409225
1883.789062	-78.669678
1884.765625	-79.271851
1885.742188	-79.172447
1886.718750	-78.868523
1887.695312	-79.145966
1888.671875	-78.105911
1889.648438	-78.309029
1890.625000	-79.004791
1891.601562	-78.856071
1892.578125	-78.973961
1893.554688	-79.417854
1894.531250	-78.853531
1895.507812	-78.699448
1896.484375	-78.680824
1897.460938	-78.568695
1898.437500	-78.261665
1899.414062	-78.416275
1900.390625	-77.796204
1901.367188	-78.232788
1902.343750	-78.328835
1903.320312	-77.276558
1904.296875	-76.824989
1905.273438	-77.556503
1906.250000	-78.022354
1907.226562	-76.903404
1908.203125	-77.403748
1909.179688	-77.299133
1910.156250	-76.379707
1911.132812	-77.119637
1912.109375	-76.843727
1913.085938	-76.895370
1914.062500	-76.073174
1915.039062	-76.956497
1916.015625	-76.295570
1916.992188	-75.979561
1917.968750	-75.375977
1918.945312	-76.222740
1919.921875	-75.906647
1920.898438	-75.804352
1921.875000	-75.164177
1922.851562	-75.867332
1923.828125	-75.433662
1924.804688	-74.415131
1925.781250	-74.721947
1926.757812	-74.874283
1927.734375	-75.151962
1928.710938	-74.512146
1929.687500	-73.580391
1930.664062	-74.367554
1931.640625	-74.529091
1932.617188	-73.435547
1933.593750	-73.502022
1934.570312	-73.881561
1935.546875	-73.953812
1936.523438	-73.468658
1937.500000	-73.242882
1938.476562	-73.329170
1939.453125	-72.517395
1940.429688	-73.660286
1941.406250	-72.229012
1942.382812	-72.536453
1943.359375	-72.446022
1944.335938	-72.182358
1945.312500	-72.463585
1946.289062	-72.304993
1947.265625	-72.242371
1948.242188	-71.670609
1949.218750	-71.897697
1950.195312	-71.222748
1951.171875	-71.889008
1952.148438	-71.606552
1953.125000	-72.345924
1954.101562	-70.361549
1955.078125	-71.672073
1956.054688	-72.224762
1957.031250	-71.244835
1958.007812	-71.950256
1958.984375	-71.583694
1959.960938	-71.409653
1960.937500	-71.218369
1961.914062	-70.537209
1962.890625	-71.324898
1963.867188	-71.249680
1964.843750	-70.730522
1965.820312	-71.403503
1966.796875	-71.363167
1967.773438	-71.376495
1968.750000	-71.175529
1969.726562	-70.837669
1970.703125	-71.091156
1971.679688	-71.439133
1972.656250	-71.540718
1973.632812	-70.820869
1974.609375	-70.902946
1975.585938	-71.470886
1976.562500	-70.266617
1977.539062	-70.656242
1978.515625	-70.909698
1979.492188	-70.831352
1980.468750	-71.500114
1981.445312	-71.095139
1982.421875	-71.264748
1983.398438	-70.906334
1984.375000	-72.098663
1985.351562	-71.368263
1986.328125	-71.536484
1987.304688	-71.633148
1988.281250	-71.756508
1989.257812	-71.215050
1990.234375	-71.759682
1991.210938	-71.114868
1992.187500	-71.705170
1993.164062	-71.527794
1994.140625	-71.237823
1995.117188	-71.587379
1996.093750	-71.554047
1997.070312	-71.234352
1998.046875	-71.971001
1999.023438	-72.059738
2000.000000	-71.627533
2000.976562	-70.956856
2001.953125	-71.766899
2002.929688	-71.814064
2003.906250	-71.243050
2004.882812	-71.604080
2005.859375	-71.945328
2006.835938	-71.849876
2007.812500	-71.130760
2008.789062	-72.082687
2009.765625	-71.781944
2010.742188	-71.270050
2011.718750	-72.116776
2012.695312	-72.452827
2013.671875	-71.734741
2014.648438	-71.216560
2015.625000	-72.286804
2016.601562	-71.110138
2017.578125	-71.465050
2018.554688	-71.849998
2019.531250	-72.146431
2020.507812	-71.164795
2021.484375	-71.437309
2022.460938	-71.769188
2023.437500	-71.929565
2024.414062	-71.406151
2025.390625	-70.705734
2026.367188	-71.093254
2027.343750	-70.688744
2028.320312	-71.509232
2029.296875	-70.852104
2030.273438	-71.325104
2031.250000	-71.594017
2032.226562	-69.832596
2033.203125	-70.184044
2034.179688	-70.558617
2035.156250	-70.658424
2036.132812	-70.467613
2037.109375	-70.102150
2038.085938	-70.411949
2039.062500	-69.811531
2040.039062	-70.594475
2041.015625	-70.476578
2041.992188	-70.226669
2042.968750	-70.631027
2043.945312	-70.473976
2044.921875	-70.116470
2045.898438	-70.645447
2046.875000	-70.709396
2047.851562	-69.509544
2048.828125	-69.840057
2049.804688	-69.687019
2050.781250	-69.703445
2051.757812	-69.182281
2052.734375	-69.215256
2053.710938	-69.262581
2054.687500	-69.080452
2055.664062	-68.912109
2056.640625	-69.638649
2057.617188	-69.382355
2058.593750	-68.989990
2059.570312	-68.984779
2060.546875	-68.926285
2061.523438	-68.898254
2062.500000	-67.772949
2063.476562	-67.874466
2064.453125	-68.318176
2065.429688	-68.197754
2066.406250	-67.684540
2067.382812	-68.617805
2068.359375	-68.251671
2069.335938	-68.173080
2070.312500	-68.199234
2071.289062	-67.180237
2072.265625	-66.611572
2073.242188	-66.956543
2074.218750	-66.368446
2075.195312	-66.316086
2076.171875	-65.800201
2077.148438	-65.520546
2078.125000	-65.302139
2079.101562	-64.468796
2080.078125	-63.797565
2081.054688	-62.893227
2082.031250	-62.268169
2083.007812	-62.035206
2083.984375	-61.155811
2084.960938	-59.982559
2085.937500	-60.162975
2086.914062	-59.910564
2087.890625	-59.321571
2088.867188	-58.962067
2089.843750	-58.428356
2090.820312	-58.439117
2091.796875	-58.251877
2092.773438	-58.474327
2093.750000	-58.337833
2094.726562	-57.272449
2095.703125	-57.707111
2096.679688	-58.025757
2097.656250	-56.996582
2098.632812	-57.679131
2099.609375	-57.368786
2100.585938	-57.069515
2101.562500	-57.890377
2102.539062	-58.209183
2103.515625	-58.088238
2104.492188	-59.053715
2105.468750	-59.221096
2106.445312	-58.996513
2107.421875	-59.826286
2108.398438	-59.505398
2109.375000	-59.837742
2110.351562	-60.563839
2111.328125	-60.919415
2112.304688	-61.059772
2113.281250	-61.807713
2114.257812	-61.540607
2115.234375	-62.047382
2116.210938	-63.052689
2117.187500	-63.803734
2118.164062	-64.160400
2119.140625	-64.509270
2120.117188	-64.658226
2121.093750	-65.265060
2122.070312	-65.664925
2123.046875	-65.858391
2124.023438	-67.115570
2125.000000	-67.167358
2125.976562	-66.459381
2126.953125	-66.110260
2127.929688	-67.306244
2128.906250	-66.640984
2129.882812	-65.965897
2130.859375	-65.614517
2131.835938	-64.489250
2132.812500	-63.801556
2133.789062	-63.101360
2134.765625	-62.308743
2135.742188	-62.218285
2136.718750	-60.829796
2137.695312	-60.992828
2138.671875	-59.539536
2139.648438	-59.703415
2140.625000	-58.234638
2141.601562	-57.903305
2142.578125	-56.776012
2143.554688	-56.958458
2144.531250	-57.327953
2145.507812	-56.063782
2146.484375	-55.600986
2147.460938	-55.699230
2148.437500	-54.950546
2149.414062	-56.690521
2150.390625	-54.413338
2151.367188	-53.538750
2152.343750	-52.940704
2153.320312	-53.817440
2154.296875	-52.841961
2155.273438	-52.745323
2156.250000	-52.828762
2157.226562	-51.325626
2158.203125	-51.227634
2159.179688	-52.681534
2160.156250	-52.410778
2161.132812	-50.893681
2162.109375	-50.988758
2163.085938	-50.772194
2164.062500	-50.075809
2165.039062	-49.976570
2166.015625	-51.019535
2166.992188	-51.139877
2167.968750	-50.586182
2168.945312	-50.359100
2169.921875	-49.942776
2170.898438	-49.847481
2171.875000	-47.221462
2172.851562	-48.265785
2173.828125	-48.599064
2174.804688	-48.842735
2175.781250	-48.127029
2176.757812	-47.233707
2177.734375	-47.098499
2178.710938	-47.307518
2179.687500	-46.801910
2180.664062	-46.061172
2181.640625	-46.413147
2182.617188	-45.197281
2183.593750	-45.623203
2184.570312	-45.511864
2185.546875	-44.694691
2186.523438	-43.727043
2187.500000	-44.272598
2188.476562	-44.181213
2189.453125	-44.354076
2190.429688	-43.542076
2191.406250	-43.434113
2192.382812	-43.027657
2193.359375	-41.381615
2194.335938	-42.184811
2195.312500	-41.001911
2196.289062	-41.636921
2197.265625	-41.016018
2198.242188	-40.713650
2199.218750	-41.554790
2200.195312	-41.802692
2201.171875	-40.859699
2202.148438	-41.723354
2203.125000	-40.368431
2204.101562	-41.209312
2205.078125	-40.444633
2206.054688	-40.887451
2207.031250	-39.819897
2208.007812	-40.339516
2208.984375	-40.366871
2209.960938	-40.293991
2210.937500	-40.275833
2211.914062	-40.691540
2212.890625	-40.006538
2213.867188	-39.648560
2214.843750	-39.999496
2215.820312	-40.265842
2216.796875	-40.408833
2217.773438	-40.243740
2218.750000	-40.338539
2219.726562	-39.862572
2220.703125	-41.342846
2221.679688	-40.856579
2222.656250	-42.674870
2223.632812	-40.862709
2224.609375	-39.363201
2225.585938	-40.481895
2226.562500	-41.197727
2227.539062	-42.236095
2228.515625	-41.772411
2229.492188	-41.814690
2230.468750	-42.432198
2231.445312	-42.018059
2232.421875	-42.384998
2233.398438	-43.042721
2234.375000	-43.660927
2235.351562	-43.489433
2236.328125	-43.698193
2237.304688	-43.330410
2238.281250	-43.525433
2239.257812	-44.310101
2240.234375	-45.137318
2241.210938	-46.661720
2242.187500	-46.146286
2243.164062	-46.252506
2244.140625	-46.786007
2245.117188	-46.488739
2246.093750	-47.399235
2247.070312	-48.302330
2248.046875	-50.608326
2249.023438	-49.519909
2250.000000	-49.323357
2250.976562	-51.215393
2251.953125	-49.877171
2252.929688	-51.384865
2253.906250	-51.902500
2254.882812	-55.164978
2255.859375	-54.589039
2256.835938	-54.964672
2257.812500	-55.492355
2258.789062	-54.757507
2259.765625	-56.960571
2260.742188	-57.390533
2261.718750	-58.104088
2262.695312	-59.390995
2263.671875	-59.197975
2264.648438	-60.675449
2265.625000	-59.960136
2266.601562	-61.177219
2267.578125	-61.379536
2268.554688	-62.275337
2269.531250	-63.588020
2270.507812	-63.203129
2271.484375	-63.170551
2272.460938	-63.640564
2273.437500	-63.679092
2274.414062	-64.744255
2275.390625	-65.046951
2276.367188	-65.705269
2277.343750	-65.085587
2278.320312	-64.988068
2279.296875	-65.280136
2280.273438	-65.253250
2281.250000	-65.826462
2282.226562	-65.517326
2283.203125	-65.661453
2284.179688	-66.116425
2285.156250	-66.294968
2286.132812	-66.537636
2287.109375	-66.271614
2288.085938	-66.502708
2289.062500	-66.570816
2290.039062	-65.847885
2291.015625	-66.020607
2291.992188	-66.093948
2292.968750	-67.302727
2293.945312	-67.137863
2294.921875	-66.647331
2295.898438	-66.310013
2296.875000	-67.273148
2297.851562	-66.936821
2298.828125	-67.987221
2299.804688	-67.784172
2300.781250	-68.668427
2301.757812	-68.396004
2302.734375	-68.219711
2303.710938	-68.276230
2304.687500	-68.754135
2305.664062	-68.922272
2306.640625	-69.257736
2307.617188	-69.311546
2308.593750	-69.581581
2309.570312	-69.567520
2310.546875	-69.863029
2311.523438	-69.239662
2312.500000	-70.014633
2313.476562	-70.293495
2314.453125	-71.335579
2315.429688	-70.912239
2316.406250	-71.418266
2317.382812	-72.218979
2318.359375	-71.612244
2319.335938	-71.303215
2320.312500	-71.781937
2321.289062	-72.131271
2322.265625	-72.791435
2323.242188	-72.581749
2324.218750	-72.909897
2325.195312	-72.784630
2326.171875	-73.118759
2327.148438	-73.203003
2328.125000	-73.009697
2329.101562	-72.812370
2330.078125	-73.453293
2331.054688	-73.418350
2332.031250	-72.437744
2333.007812	-72.645157
2333.984375	-73.032799
2334.960938	-72.491531
2335.937500	-72.646049
2336.914062	-72.669411
2337.890625	-72.616455
2338.867188	-72.154602
2339.843750	-72.064125
2340.820312	-72.476875
2341.796875	-72.659256
2342.773438	-71.783508
2343.750000	-71.973907
2344.726562	-72.422043
2345.703125	-71.616631
2346.679688	-71.400879
2347.656250	-71.863335
2348.632812	-71.756126
2349.609375	-71.079567
2350.585938	-71.413925
2351.562500	-71.821449
2352.539062	-71.810661
2353.515625	-71.240021
2354.492188	-71.280182
2355.468750	-70.513962
2356.445312	-70.708168
2357.421875	-71.132080
2358.398438	-71.046089
2359.375000	-70.524857
2360.351562	-70.729446
2361.328125	-70.649147
2362.304688	-70.520317
2363.281250	-71.020218
2364.257812	-70.922745
2365.234375	-70.419205
2366.210938	-71.055527
2367.187500	-70.579025
2368.164062	-70.472221
2369.140625	-70.310135
2370.117188	-70.207962
2371.093750	-70.321747
2372.070312	-70.931847
2373.046875	-70.593651
2374.023438	-70.082321
2375.000000	-70.493469
2375.976562	-68.957771
2376.953125	-69.564484
2377.929688	-70.192307
2378.906250	-70.452553
2379.882812	-68.974068
2380.859375	-69.914635
2381.835938	-70.488533
2382.812500	-70.234108
2383.789062	-69.804359
2384.765625	-69.591774
2385.742188	-69.342499
2386.718750	-69.657578
2387.695312	-68.858078
2388.671875	-69.198738
2389.648438	-69.730949
2390.625000	-69.215744
2391.601562	-69.665085
2392.578125	-69.470245
2393.554688	-69.873077
2394.531250	-69.716553
2395.507812	-69.046913
2396.484375	-69.967079
2397.460938	-69.717995
2398.437500	-69.558655
2399.414062	-69.923050
2400.390625	-70.106369
2401.367188	-70.966370
2402.343750	-70.393066
2403.320312	-70.231300
2404.296875	-69.992661
2405.273438	-70.140472
2406.250000	-69.985275
2407.226562	-70.193443
2408.203125	-69.865562
2409.179688	-69.565285
2410.156250	-70.653076
2411.132812	-70.206871
2412.109375	-69.983955
2413.085938	-70.205223
2414.062500	-70.473778
2415.039062	-70.684990
2416.015625	-70.379204
2416.992188	-70.002205
2417.968750	-70.813377
2418.945312	-70.434761
2419.921875	-70.329285
2420.898438	-69.854713
2421.875000	-69.756668
2422.851562	-69.905594
2423.828125	-70.254326
2424.804688	-69.648895
2425.781250	-69.911835
2426.757812	-70.522346
2427.734375	-70.553284
2428.710938	-70.869164
2429.687500	-70.492516
2430.664062	-69.648964
2431.640625	-70.029518
2432.617188	-70.008316
2433.593750	-70.966583
2434.570312	-70.007820
2435.546875	-71.264236
2436.523438	-71.282112
2437.500000	-70.011559
2438.476562	-69.866310
2439.453125	-70.060432
2440.429688	-69.561699
2441.406250	-71.343872
2442.382812	-70.077881
2443.359375	-70.933029
2444.335938	-70.398979
2445.312500	-70.310989
2446.289062	-70.228569
2447.265625	-70.943977
2448.242188	-69.725052
2449.218750	-70.637482
2450.195312	-70.583801
2451.171875	-70.505379
2452.148438	-70.749817
2453.125000	-70.858437
2454.101562	-71.308167
2455.078125	-71.025566
2456.054688	-70.793472
2457.031250	-70.472038
2458.007812	-71.018494
2458.984375	-70.361023
2459.960938	-70.831863
2460.937500	-70.201157
2461.914062	-70.653252
2462.890625	-70.747475
2463.867188	-70.738701
2464.843750	-71.258545
2465.820312	-71.841721
2466.796875	-71.399101
2467.773438	-71.466019
2468.750000	-71.715263
2469.726562	-71.292519
2470.703125	-71.840424
2471.679688	-71.388885
2472.656250	-71.502701
2473.632812	-71.115646
2474.609375	-71.979523
2475.585938	-71.760902
2476.562500	-72.239044
2477.539062	-72.795837
2478.515625	-71.874008
2479.492188	-72.285866
2480.468750	-71.539543
2481.445312	-72.088730
2482.421875	-72.539841
2483.398438	-72.905922
2484.375000	-72.095413
2485.351562	-72.787788
2486.328125	-72.674515
2487.304688	-72.656761
2488.281250	-72.269997
2489.257812	-73.406082
2490.234375	-72.797722
2491.210938	-73.308746
2492.187500	-73.305405
2493.164062	-73.615883
2494.140625	-73.112160
2495.117188	-74.416306
2496.093750	-74.206444
2497.070312	-73.754807
2498.046875	-73.494514
2499.023438	-74.434570
2500.000000	-74.406281
2500.976562	-74.653152
2501.953125	-74.092613
2502.929688	-74.794373
2503.906250	-74.883949
2504.882812	-75.108139
2505.859375	-75.445572
2506.835938	-74.647766
2507.812500	-75.956352
2508.789062	-75.519447
2509.765625	-75.383156
2510.742188	-75.473648
2511.718750	-75.052795
2512.695312	-75.568459
2513.671875	-76.112839
2514.648438	-76.236984
2515.625000	-76.152351
2516.601562	-77.331551
2517.578125	-76.924728
2518.554688	-76.566566
2519.531250	-76.143478
2520.507812	-76.742882
2521.484375	-77.747063
2522.460938	-77.364265
2523.437500	-77.049873
2524.414062	-76.857841
2525.390625	-77.276794
2526.367188	-77.603958
2527.343750	-77.443840
2528.320312	-77.286758
2529.296875	-78.069908
2530.273438	-78.320610
2531.250000	-77.885048
2532.226562	-78.218575
2533.203125	-77.395584
2534.179688	-77.994385
2535.156250	-77.853172
2536.132812	-79.054993
2537.109375	-78.384659
2538.085938	-78.135315
2539.062500	-77.907211
2540.039062	-77.809799
2541.015625	-77.666977
2541.992188	-77.923172
2542.968750	-77.955849
2543.945312	-77.374626
2544.921875	-77.420578
2545.898438	-77.661575
2546.875000	-77.687149
2547.851562	-78.061600
2548.828125	-78.369270
2549.804688	-77.700127
2550.781250	-78.025642
2551.757812	-78.146339
2552.734375	-77.760910
2553.710938	-78.395050
2554.687500	-79.444328
2555.664062	-79.272141
2556.640625	-78.559509
2557.617188	-78.410416
2558.593750	-78.644653
2559.570312	-78.630501
2560.546875	-77.684624
2561.523438	-78.078468
2562.500000	-77.991615
2563.476562	-78.901970
2564.453125	-78.587837
2565.429688	-77.867683
2566.406250	-78.619598
2567.382812	-79.037766
2568.359375	-78.417313
2569.335938	-78.790497
2570.312500	-78.892677
2571.289062	-78.557220
2572.265625	-78.923828
2573.242188	-78.863960
2574.218750	-78.462944
2575.195312	-78.356400
2576.171875	-78.656677
2577.148438	-78.310669
2578.125000	-78.617874
2579.101562	-78.850761
2580.078125	-78.581329
2581.054688	-78.372124
2582.031250	-78.259239
2583.007812	-79.116951
2583.984375	-79.857162
2584.960938	-79.128296
2585.937500	-79.594193
2586.914062	-79.900284
2587.890625	-79.805344
2588.867188	-80.451889
2589.843750	-79.543861
2590.820312	-79.812843
2591.796875	-80.015114
2592.773438	-79.336311
2593.750000	-79.459488
2594.726562	-80.364128
2595.703125	-80.452675
2596.679688	-80.052200
2597.656250	-79.854164
2598.632812	-81.212616
2599.609375	-81.236801
2600.585938	-80.729393
2601.562500	-81.374619
2602.539062	-81.354584
2603.515625	-80.847237
2604.492188	-81.368057
2605.468750	-81.086288
2606.445312	-81.107208
2607.421875	-81.878120
2608.398438	-82.076607
2609.375000	-82.716278
2610.351562	-81.595573
2611.328125	-82.324814
2612.304688	-82.103256
2613.281250	-82.427193
2614.257812	-82.444893
2615.234375	-82.520218
2616.210938	-82.477936
2617.187500	-82.520981
2618.164062	-82.650520
2619.140625	-82.579437
2620.117188	-82.707108
2621.093750	-83.235573
2622.070312	-82.464165
2623.046875	-82.109375
2624.023438	-83.054085
2625.000000	-82.921516
2625.976562	-83.254875
2626.953125	-82.973015
2627.929688	-83.665695
2628.906250	-82.642258
2629.882812	-83.481735
2630.859375	-83.719643
2631.835938	-83.519470
2632.812500	-82.608170
2633.789062	-83.375481
2634.765625	-83.890114
2635.742188	-82.757149
2636.718750	-83.254166
2637.695312	-83.535141
2638.671875	-83.551468
2639.648438	-83.424881
2640.625000	-83.429359
2641.601562	-83.735092
2642.578125	-83.395653
2643.554688	-83.026436
2644.531250	-83.475624
2645.507812	-83.632355
2646.484375	-83.334137
2647.460938	-83.451736
2648.437500	-83.267143
2649.414062	-83.507019
2650.390625	-83.255905
2651.367188	-83.169685
2652.343750	-82.700172
2653.320312	-82.805603
2654.296875	-83.477768
2655.273438	-83.161064
2656.250000	-83.539955
2657.226562	-84.074127
2658.203125	-82.844894
2659.179688	-83.768326
2660.156250	-82.554619
2661.132812	-83.612617
2662.109375	-84.224449
2663.085938	-83.146278
2664.062500	-83.642418
2665.039062	-83.814316
2666.015625	-83.537651
2666.992188	-83.226715
2667.968750	-84.235771
2668.945312	-83.238266
2669.921875	-83.734581
2670.898438	-84.217979
2671.875000	-83.354698
2672.851562	-83.533958
2673.828125	-83.506668
2674.804688	-82.845009
2675.781250	-83.983940
2676.757812	-83.877838
2677.734375	-84.160896
2678.710938	-83.647865
2679.687500	-83.509949
2680.664062	-83.986259
2681.640625	-83.499664
2682.617188	-83.972656
2683.593750	-82.710587
2684.570312	-83.715111
2685.546875	-83.425087
2686.523438	-83.993767
2687.500000	-83.249077
2688.476562	-84.328468
2689.453125	-84.428299
2690.429688	-84.301399
2691.406250	-84.870819
2692.382812	-84.498047
2693.359375	-84.237099
2694.335938	-84.567909
2695.312500	-84.624580
2696.289062	-84.537186
2697.265625	-85.030663
2698.242188	-84.253685
2699.218750	-84.570175
2700.195312	-84.774864
2701.171875	-85.030792
2702.148438	-85.114502
2703.125000	-85.055824
2704.101562	-85.156990
2705.078125	-85.868439
2706.054688	-85.290039
2707.031250	-85.696907
2708.007812	-85.388702
2708.984375	-85.776024
2709.960938	-85.683510
2710.937500	-85.706436
2711.914062	-85.958206
2712.890625	-86.006577
2713.867188	-86.478165
2714.843750	-86.345650
2715.820312	-86.168312
2716.796875	-86.557053
2717.773438	-87.081337
2718.750000	-86.954979
2719.726562	-87.444176
2720.703125	-87.409401
2721.679688	-87.172707
2722.656250	-87.060326
2723.632812	-87.731049
2724.609375	-87.737717
2725.585938	-87.982979
2726.562500	-88.369186
2727.539062	-88.330742
2728.515625	-88.007439
2729.492188	-88.379738
2730.468750	-87.771683
2731.445312	-88.246742
2732.421875	-88.271507
2733.398438	-88.676697
2734.375000	-88.121948
2735.351562	-88.284515
2736.328125	-88.660423
2737.304688	-88.893417
2738.281250	-88.731316
2739.257812	-89.065804
2740.234375	-89.014320
2741.210938	-89.024559
2742.187500	-89.514633
2743.164062	-88.717453
2744.140625	-89.058228
2745.117188	-89.402290
2746.093750	-89.357925
2747.070312	-89.185715
2748.046875	-89.581894
2749.023438	-89.056030
2750.000000	-89.376732
2750.976562	-89.361015
2751.953125	-89.757080
2752.929688	-89.793900
2753.906250	-89.979591
2754.882812	-89.879883
2755.859375	-89.496292
2756.835938	-89.573799
2757.812500	-89.776039
2758.789062	-89.932739
2759.765625	-89.929375
2760.742188	-90.182571
2761.718750	-89.830727
2762.695312	-90.163918
2763.671875	-90.342102
2764.648438	-89.812134
2765.625000	-90.182816
2766.601562	-89.654243
2767.578125	-90.126381
2768.554688	-90.295731
2769.531250	-90.187271
2770.507812	-90.114265
2771.484375	-90.194580
2772.460938	-90.024071
2773.437500	-90.416847
2774.414062	-90.228218
2775.390625	-90.450241
2776.367188	-90.596596
2777.343750	-90.409096
2778.320312	-90.214439
2779.296875	-90.520538
2780.273438	-89.964890
2781.250000	-90.307938
2782.226562	-90.172386
2783.203125	-90.666847
2784.179688	-90.371246
2785.156250	-90.407364
2786.132812	-90.644768
2787.109375	-90.402115
2788.085938	-90.201157
2789.062500	-90.425461
2790.039062	-91.122108
2791.015625	-90.719261
2791.992188	-90.462509
2792.968750	-90.563416
2793.945312	-90.267097
2794.921875	-90.233177
2795.898438	-90.651245
2796.875000	-90.570549
2797.851562	-90.631531
2798.828125	-90.155182
2799.804688	-90.252350
2800.781250	-90.841385
2801.757812	-90.044739
2802.734375	-90.251511
2803.710938	-90.529579
2804.687500	-90.336403
2805.664062	-90.079567
2806.640625	-90.741035
2807.617188	-90.572380
2808.593750	-90.418205
2809.570312	-90.347557
2810.546875	-90.355988
2811.523438	-90.107254
2812.500000	-90.430573
2813.476562	-90.352364
2814.453125	-90.400398
2815.429688	-90.350319
2816.406250	-89.721039
2817.382812	-90.232971
2818.359375	-90.381035
2819.335938	-89.696671
2820.312500	-90.086365
2821.289062	-89.975990
2822.265625	-90.153069
2823.242188	-90.434174
2824.218750	-90.159958
2825.195312	-90.183617
2826.171875	-90.097488
2827.148438	-90.011665
2828.125000	-90.335442
2829.101562	-90.058464
2830.078125	-90.179977
2831.054688	-89.821297
2832.031250	-90.064003
2833.007812	-90.189880
2833.984375	-90.563461
2834.960938	-89.999184
2835.937500	-89.392159
2836.914062	-90.181473
2837.890625	-90.123466
2838.867188	-90.390778
2839.843750	-90.213219
2840.820312	-90.021751
2841.796875	-90.288704
2842.773438	-90.277367
2843.750000	-89.878479
2844.726562	-90.139771
2845.703125	-90.359604
2846.679688	-90.578224
2847.656250	-90.500107
2848.632812	-90.779175
2849.609375	-90.504097
2850.585938	-90.717171
2851.562500	-91.071754
2852.539062	-91.047760
2853.515625	-90.865097
2854.492188	-90.911018
2855.468750	-90.788963
2856.445312	-91.066246
2857.421875	-91.489250
2858.398438	-91.487709
2859.375000	-91.327660
2860.351562	-91.308281
2861.328125	-91.248512
2862.304688	-91.329376
2863.281250	-91.458733
2864.257812	-91.570267
2865.234375	-91.633858
2866.210938	-91.671715
2867.187500	-91.658035
2868.164062	-91.896545
2869.140625	-91.794975
2870.117188	-91.501396
2871.093750	-91.741928
2872.070312	-91.765694
2873.046875	-91.900162
2874.023438	-91.888550
2875.000000	-91.908554
2875.976562	-91.925995
2876.953125	-91.910820
2877.929688	-91.802696
2878.906250	-91.932098
2879.882812	-91.892586
2880.859375	-92.277084
2881.835938	-91.938293
2882.812500	-91.842575
2883.789062	-91.911079
2884.765625	-92.033997
2885.742188	-91.996941
2886.718750	-91.928986
2887.695312	-91.946030
2888.671875	-91.897629
2889.648438	-92.266251
2890.625000	-91.961082
2891.601562	-92.092178
2892.578125	-92.143143
2893.554688	-91.963486
2894.531250	-92.013420
2895.507812	-92.105690
2896.484375	-91.785583
2897.460938	-91.882248
2898.437500	-92.027031
2899.414062	-92.123840
2900.390625	-92.060768
2901.367188	-91.767639
2902.343750	-91.882683
2903.320312	-91.546272
2904.296875	-91.842896
2905.273438	-91.574890
2906.250000	-91.524574
2907.226562	-91.692856
2908.203125	-91.786041
2909.179688	-91.728409
2910.156250	-91.708199
2911.132812	-91.204964
2912.109375	-91.554070
2913.085938	-91.534821
2914.062500	-91.187454
2915.039062	-91.483147
2916.015625	-90.965439
2916.992188	-90.839691
2917.968750	-91.265930
2918.945312	-91.245712
2919.921875	-90.575127
2920.898438	-90.911987
2921.875000	-90.832924
2922.851562	-90.774193
2923.828125	-91.100967
2924.804688	-91.410294
2925.781250	-90.458740
2926.757812	-90.542023
2927.734375	-89.958473
2928.710938	-90.163559
2929.687500	-89.738808
2930.664062	-90.123764
2931.640625	-90.251488
2932.617188	-89.340141
2933.593750	-90.054871
2934.570312	-89.799889
2935.546875	-88.998924
2936.523438	-88.679634
2937.500000	-88.853119
2938.476562	-88.820206
2939.453125	-88.710266
2940.429688	-88.711098
2941.406250	-88.924004
2942.382812	-88.701538
2943.359375	-88.568100
2944.335938	-88.584030
2945.312500	-88.323669
2946.289062	-88.191093
2947.265625	-88.249863
2948.242188	-88.068733
2949.218750	-88.390152
2950.195312	-88.351021
2951.171875	-88.338356
2952.148438	-87.714302
2953.125000	-88.273712
2954.101562	-88.403938
2955.078125	-88.074600
2956.054688	-88.409859
2957.031250	-87.917198
2958.007812	-88.477753
2958.984375	-88.314751
2959.960938	-88.009598
2960.937500	-87.845024
2961.914062	-88.148567
2962.890625	-87.795975
2963.867188	-87.587120
2964.843750	-88.007019
2965.820312	-88.133949
2966.796875	-87.861862
2967.773438	-87.916481
2968.750000	-87.211967
2969.726562	-88.153198
2970.703125	-87.232735
2971.679688	-87.105766
2972.656250	-87.531418
2973.632812	-87.414139
2974.609375	-87.764641
2975.585938	-87.431068
2976.562500	-87.478386
2977.539062	-88.118156
2978.515625	-88.679100
2979.492188	-87.552040
2980.468750	-87.766884
2981.445312	-88.165306
2982.421875	-87.731560
2983.398438	-87.954453
2984.375000	-87.417480
2985.351562	-87.198303
2986.328125	-87.445213
2987.304688	-87.958298
2988.281250	-87.738770
2989.257812	-87.867836
2990.234375	-87.341141
2991.210938	-87.587128
2992.187500	-87.642319
2993.164062	-88.080765
2994.140625	-86.765144
2995.117188	-87.308937
2996.093750	-87.334160
2997.070312	-86.829063
2998.046875	-87.482025
2999.023438	-87.557114
3000.000000	-87.609390
3000.976562	-88.148056
3001.953125	-87.626381
3002.929688	-87.212189
3003.906250	-88.750702
3004.882812	-88.135963
3005.859375	-87.375725
3006.835938	-87.420692
3007.812500	-88.429863
3008.789062	-87.873161
3009.765625	-88.391220
3010.742188	-88.173523
3011.718750	-88.499107
3012.695312	-88.601234
3013.671875	-88.385651
3014.648438	-88.993866
3015.625000	-88.125244
3016.601562	-89.152084
3017.578125	-88.572037
3018.554688	-89.185677
3019.531250	-89.699425
3020.507812	-88.724319
3021.484375	-89.501747
3022.460938	-90.211990
3023.437500	-89.612801
3024.414062	-89.660294
3025.390625	-89.289925
3026.367188	-89.513107
3027.343750	-89.587730
3028.320312	-90.144806
3029.296875	-89.741074
3030.273438	-89.801384
3031.250000	-89.901360
3032.226562	-90.456383
3033.203125	-90.141182
3034.179688	-90.309219
3035.156250	-90.154022
3036.132812	-89.800087
3037.109375	-90.476311
3038.085938	-90.956146
3039.062500	-90.132019
3040.039062	-90.834976
3041.015625	-90.111366
3041.992188	-90.263206
3042.968750	-90.309280
3043.945312	-89.947083
3044.921875	-90.182945
3045.898438	-90.296814
3046.875000	-90.276680
3047.851562	-90.022064
3048.828125	-90.616959
3049.804688	-90.922874
3050.781250	-90.653458
3051.757812	-89.987328
3052.734375	-90.479088
3053.710938	-90.696648
3054.687500	-89.967720
3055.664062	-89.377693
3056.640625	-90.060638
3057.617188	-90.532555
3058.593750	-89.717125
3059.570312	-89.453178
3060.546875	-89.395042
3061.523438	-89.276352
3062.500000	-89.365196
3063.476562	-89.509483
3064.453125	-88.904518
3065.429688	-88.458763
3066.406250	-88.804604
3067.382812	-88.635544
3068.359375	-88.613350
3069.335938	-89.264633
3070.312500	-88.802284
3071.289062	-88.921394
3072.265625	-88.736595
3073.242188	-88.712379
3074.218750	-88.063583
3075.195312	-88.727364
3076.171875	-89.237305
3077.148438	-88.779968
3078.125000	-88.842033
3079.101562	-88.483055
3080.078125	-88.671272
3081.054688	-88.992775
3082.031250	-88.469513
3083.007812	-88.198769
3083.984375	-87.876060
3084.960938	-88.763634
3085.937500	-88.158241
3086.914062	-88.182243
3087.890625	-88.275543
3088.867188	-88.224724
3089.843750	-88.676331
3090.820312	-88.441734
3091.796875	-88.001602
3092.773438	-88.249855
3093.750000	-88.155075
3094.726562	-87.917290
3095.703125	-88.479454
3096.679688	-88.191933
3097.656250	-88.234581
3098.632812	-88.979996
3099.609375	-87.828865
3100.585938	-87.699303
3101.562500	-89.298943
3102.539062	-88.294632
3103.515625	-88.805038
3104.492188	-87.924843
3105.468750	-88.597885
3106.445312	-88.230232
3107.421875	-88.799004
3108.398438	-89.562599
3109.375000	-88.734589
3110.351562	-88.012321
3111.328125	-88.526596
3112.304688	-89.184364
3113.281250	-88.347595
3114.257812	-88.358727
3115.234375	-88.407288
3116.210938	-87.795418
3117.187500	-88.169472
3118.164062	-88.274300
3119.140625	-88.028214
3120.117188	-87.988434
3121.093750	-87.768448
3122.070312	-88.488586
3123.046875	-88.172623
3124.023438	-87.543655
3125.000000	-87.583817
3125.976562	-87.663330
3126.953125	-88.321266
3127.929688	-88.818703
3128.906250	-87.919472
3129.882812	-87.341347
3130.859375	-88.502731
3131.835938	-88.257103
3132.812500	-87.939331
3133.789062	-88.097961
3134.765625	-88.654480
3135.742188	-88.638748
3136.718750	-88.072571
3137.695312	-87.481766
3138.671875	-87.825348
3139.648438	-88.512802
3140.625000	-87.874313
3141.601562	-87.585312
3142.578125	-87.584610
3143.554688	-87.559250
3144.531250	-87.398628
3145.507812	-87.345253
3146.484375	-86.565239
3147.460938	-87.569557
3148.437500	-87.781586
3149.414062	-86.975113
3150.390625	-86.813240
3151.367188	-86.931870
3152.343750	-87.188828
3153.320312	-87.333252
3154.296875	-87.903786
3155.273438	-86.942017
3156.250000	-86.895607
3157.226562	-85.985176
3158.203125	-86.890785
3159.179688	-87.392616
3160.156250	-87.347710
3161.132812	-87.127914
3162.109375	-87.911758
3163.085938	-87.397087
3164.062500	-86.723587
3165.039062	-87.150864
3166.015625	-87.639351
3166.992188	-87.530220
3167.968750	-87.359016
3168.945312	-86.611046
3169.921875	-87.819641
3170.898438	-86.790550
3171.875000	-87.341980
3172.851562	-86.744881
3173.828125	-86.336075
3174.804688	-87.368652
3175.781250	-87.139366
3176.757812	-87.221237
3177.734375	-88.025230
3178.710938	-86.635406
3179.687500	-87.383301
3180.664062	-87.303780
3181.640625	-87.381142
3182.617188	-87.699707
3183.593750	-87.488892
3184.570312	-87.283585
3185.546875	-86.729538
3186.523438	-87.340660
3187.500000	-86.503380
3188.476562	-87.244789
3189.453125	-87.239037
3190.429688	-87.886307
3191.406250	-87.279182
3192.382812	-86.902145
3193.359375	-87.453018
3194.335938	-87.330620
3195.312500	-87.157715
3196.289062	-87.399704
3197.265625	-87.384865
3198.242188	-88.243759
3199.218750	-88.064713
3200.195312	-88.012985
3201.171875	-87.954308
3202.148438	-87.497536
3203.125000	-88.392097
3204.101562	-87.563545
3205.078125	-87.917549
3206.054688	-88.312073
3207.031250	-87.818474
3208.007812	-87.415443
3208.984375	-87.482857
3209.960938	-88.429665
3210.937500	-88.152977
3211.914062	-88.238136
3212.890625	-88.316727
3213.867188	-89.284706
3214.843750	-88.886322
3215.820312	-88.243660
3216.796875	-88.574989
3217.773438	-88.526649
3218.750000	-88.331291
3219.726562	-88.232986
3220.703125	-88.820847
3221.679688	-89.236328
3222.656250	-89.338234
3223.632812	-89.279541
3224.609375	-89.322105
3225.585938	-89.916298
3226.562500	-89.516457
3227.539062	-89.268875
3228.515625	-88.849014
3229.492188	-88.295998
3230.468750	-88.367294
3231.445312	-89.311043
3232.421875	-88.896255
3233.398438	-89.483452
3234.375000	-89.417480
3235.351562	-89.063148
3236.328125	-89.613792
3237.304688	-89.633102
3238.281250	-89.276123
3239.257812	-88.551697
3240.234375	-88.925095
3241.210938	-89.038307
3242.187500	-89.450989
3243.164062	-89.600311
3244.140625	-89.086845
3245.117188	-89.313431
3246.093750	-88.807655
3247.070312	-89.443634
3248.046875	-90.050102
3249.023438	-89.866371
3250.000000	-89.716843
3250.976562	-89.849426
3251.953125	-89.958328
3252.929688	-88.867508
3253.906250	-90.242203
3254.882812	-89.778587
3255.859375	-90.000931
3256.835938	-90.088783
3257.812500	-89.745903
3258.789062	-89.600067
3259.765625	-89.908890
3260.742188	-89.281647
3261.718750	-89.854813
3262.695312	-90.128494
3263.671875	-89.012047
3264.648438	-89.481125
3265.625000	-89.884193
3266.601562	-89.915840
3267.578125	-89.312775
3268.554688	-89.664368
3269.531250	-89.241547
3270.507812	-89.667198
3271.484375	-89.336510
3272.460938	-89.709747
3273.437500	-89.853287
3274.414062	-89.061897
3275.390625	-89.846184
3276.367188	-89.848885
3277.343750	-89.632355
3278.320312	-89.837875
3279.296875	-89.499161
3280.273438	-90.184830
3281.250000	-89.232040
3282.226562	-89.529465
3283.203125	-89.970177
3284.179688	-88.953842
3285.156250	-89.024666
3286.132812	-89.846893
3287.109375	-88.860504
3288.085938	-88.649506
3289.062500	-89.447823
3290.039062	-89.461983
3291.015625	-89.502464
3291.992188	-88.780090
3292.968750	-88.815636
3293.945312	-89.640862
3294.921875	-89.220726
3295.898438	-89.631096
3296.875000	-89.011360
3297.851562	-89.730911
3298.828125	-88.652863
3299.804688	-88.628952
3300.781250	-88.478249
3301.757812	-88.426254
3302.734375	-89.115967
3303.710938	-88.919067
3304.687500	-88.738342
3305.664062	-88.626236
3306.640625	-88.409698
3307.617188	-88.229996
3308.593750	-88.817131
3309.570312	-88.165565
3310.546875	-88.323036
3311.523438	-88.441734
3312.500000	-87.726723
3313.476562	-88.066582
3314.453125	-88.320763
3315.429688	-87.675636
3316.406250	-88.167053
3317.382812	-88.263359
3318.359375	-87.604454
3319.335938	-88.662727
3320.312500	-88.036789
3321.289062	-87.901833
3322.265625	-88.084663
3323.242188	-88.610649
3324.218750	-89.121910
3325.195312	-88.249344
3326.171875	-88.216278
3327.148438	-88.051933
3328.125000	-88.437508
3329.101562	-87.830444
3330.078125	-87.750069
3331.054688	-88.446327
3332.031250	-88.040527
3333.007812	-87.882034
3333.984375	-88.663841
3334.960938	-88.199043
3335.937500	-87.742828
3336.914062	-88.654541
3337.890625	-88.238899
3338.867188	-88.233360
3339.843750	-88.398056
3340.820312	-88.341423
3341.796875	-88.761742
3342.773438	-87.552406
3343.750000	-87.876877
3344.726562	-88.603371
3345.703125	-88.012154
3346.679688	-88.090767
3347.656250	-87.813301
3348.632812	-87.773125
3349.609375	-89.050858
3350.585938	-87.539909
3351.562500	-88.398911
3352.539062	-87.948654
3353.515625	-88.858040
3354.492188	-88.242645
3355.468750	-88.321495
3356.445312	-88.584587
3357.421875	-87.631371
3358.398438	-88.173447
3359.375000	-88.598259
3360.351562	-88.273743
3361.328125	-88.802811
3362.304688	-88.644432
3363.281250	-88.406799
3364.257812	-88.981850
3365.234375	-88.764038
3366.210938	-88.667358
3367.187500	-88.679596
3368.164062	-88.797768
3369.140625	-88.728027
3370.117188	-89.522102
3371.093750	-89.166710
3372.070312	-89.058754
3373.046875	-88.530571
3374.023438	-88.602852
3375.000000	-88.732956
3375.976562	-88.413544
3376.953125	-88.052032
3377.929688	-89.249138
3378.906250	-90.248886
3379.882812	-89.467979
3380.859375	-88.805565
3381.835938	-88.533463
3382.812500	-88.920303
3383.789062	-89.126205
3384.765625	-89.447388
3385.742188	-88.639168
3386.718750	-89.049194
3387.695312	-89.002914
3388.671875	-88.717812
3389.648438	-89.232185
3390.625000	-88.936394
3391.601562	-89.135101
3392.578125	-88.673622
3393.554688	-88.411049
3394.531250	-89.472504
3395.507812	-88.988213
3396.484375	-88.050873
3397.460938	-88.878929
3398.437500	-88.665184
3399.414062	-89.009315
3400.390625	-88.452377
3401.367188	-88.805061
3402.343750	-88.927307
3403.320312	-88.824570
3404.296875	-88.694130
3405.273438	-88.796631
3406.250000	-88.649246
3407.226562	-89.580948
3408.203125	-89.060020
3409.179688	-88.768997
3410.156250	-88.626228
3411.132812	-88.646278
3412.109375	-88.618637
3413.085938	-88.803986
3414.062500	-88.772705
3415.039062	-89.430824
3416.015625	-88.411209
3416.992188	-88.669792
3417.968750	-88.380646
3418.945312	-88.268425
3419.921875	-87.873100
3420.898438	-88.574074
3421.875000	-88.877983
3422.851562	-89.944099
3423.828125	-89.100693
3424.804688	-88.233986
3425.781250	-88.826019
3426.757812	-89.516655
3427.734375	-88.640999
3428.710938	-88.432587
3429.687500	-88.465988
3430.664062	-88.410194
3431.640625	-89.806412
3432.617188	-88.951912
3433.593750	-88.869225
3434.570312	-89.225975
3435.546875	-89.760529
3436.523438	-88.962723
3437.500000	-88.969109
3438.476562	-88.140709
3439.453125	-89.056175
3440.429688	-88.285149
3441.406250	-88.913963
3442.382812	-88.346336
3443.359375	-88.710922
3444.335938	-89.120193
3445.312500	-87.966988
3446.289062	-87.994720
3447.265625	-88.336288
3448.242188	-89.613213
3449.218750	-88.671547
3450.195312	-89.031204
3451.171875	-88.445992
3452.148438	-88.234688
3453.125000	-89.052689
3454.101562	-88.822952
3455.078125	-87.909599
3456.054688	-88.450752
3457.031250	-88.605576
3458.007812	-89.607712
3458.984375	-88.811478
3459.960938	-88.316597
3460.937500	-88.404129
3461.914062	-88.742371
3462.890625	-88.693130
3463.867188	-88.911369
3464.843750	-88.942001
3465.820312	-88.096840
3466.796875	-87.807655
3467.773438	-87.159828
3468.750000	-88.340866
3469.726562	-88.601524
3470.703125	-88.759697
3471.679688	-88.259354
3472.656250	-88.532776
3473.632812	-89.032188
3474.609375	-88.147858
3475.585938	-88.256783
3476.562500	-87.879250
3477.539062	-88.146828
3478.515625	-88.046791
3479.492188	-88.220406
3480.468750	-87.278717
3481.445312	-87.603371
3482.421875	-88.249207
3483.398438	-87.951805
3484.375000	-86.959160
3485.351562	-87.548058
3486.328125	-87.929749
3487.304688	-87.308075
3488.281250	-88.122162
3489.257812	-87.974388
3490.234375	-86.656540
3491.210938	-87.712410
3492.187500	-87.539078
3493.164062	-87.836449
3494.140625	-88.629776
3495.117188	-87.941734
3496.093750	-88.252838
3497.070312	-87.892258
3498.046875	-88.010902
3499.023438	-88.204102
3500.000000	-88.314880
3500.976562	-88.556908
3501.953125	-88.578941
3502.929688	-88.477585
3503.906250	-87.965096
3504.882812	-88.948517
3505.859375	-89.169365
3506.835938	-88.907051
3507.812500	-89.295815
3508.789062	-88.868462
3509.765625	-89.069588
3510.742188	-88.946899
3511.718750	-89.700462
3512.695312	-90.287605
3513.671875	-90.308228
3514.648438	-89.830879
3515.625000	-90.334480
3516.601562	-89.663147
3517.578125	-90.900871
3518.554688	-90.392113
3519.531250	-91.158257
3520.507812	-90.643471
3521.484375	-90.998375
3522.460938	-91.433754
3523.437500	-90.998283
3524.414062	-91.557396
3525.390625	-91.792282
3526.367188	-92.166679
3527.343750	-91.304947
3528.320312	-91.494713
3529.296875	-91.741745
3530.273438	-91.641823
3531.250000	-91.731621
3532.226562	-91.078857
3533.203125	-91.694572
3534.179688	-91.456856
3535.156250	-92.260414
3536.132812	-91.436882
3537.109375	-91.921715
3538.085938	-92.003510
3539.062500	-91.952377
3540.039062	-91.801102
3541.015625	-92.300316
3541.992188	-91.997490
3542.968750	-91.849846
3543.945312	-91.525459
3544.921875	-91.218178
3545.898438	-92.387817
3546.875000	-92.048592
3547.851562	-91.885674
3548.828125	-91.347748
3549.804688	-91.949570
3550.781250	-91.688141
3551.757812	-92.123177
3552.734375	-90.924965
3553.710938	-91.040764
3554.687500	-91.226936
3555.664062	-90.576988
3556.640625	-91.133972
3557.617188	-90.153534
3558.593750	-90.037773
3559.570312	-90.473419
3560.546875	-90.471436
3561.523438	-90.403503
3562.500000	-90.089264
3563.476562	-90.922165
3564.453125	-90.382553
3565.429688	-91.266098
3566.406250	-90.560860
3567.382812	-89.736214
3568.359375	-90.109695
3569.335938	-90.238190
3570.312500	-89.707390
3571.289062	-90.103493
3572.265625	-90.067482
3573.242188	-89.747154
3574.218750	-89.748352
3575.195312	-89.742981
3576.171875	-90.136406
3577.148438	-89.278160
3578.125000	-89.354256
3579.101562	-89.278725
3580.078125	-89.045326
3581.054688	-89.568924
3582.031250	-89.160698
3583.007812	-88.951210
3583.984375	-90.224434
3584.960938	-89.737411
3585.937500	-88.730919
3586.914062	-89.669899
3587.890625	-88.930183
3588.867188	-88.856804
3589.843750	-89.226357
3590.820312	-89.327255
3591.796875	-88.943619
3592.773438	-89.021606
3593.750000	-89.075417
3594.726562	-88.767082
3595.703125	-88.641457
3596.679688	-89.710907
3597.656250	-88.120155
3598.632812	-89.411072
3599.609375	-88.864006
3600.585938	-89.762390
3601.562500	-89.863907
3602.539062	-89.268059
3603.515625	-88.746033
3604.492188	-88.743019
3605.468750	-89.081802
3606.445312	-87.905159
3607.421875	-88.309059
3608.398438	-88.357002
3609.375000	-88.912849
3610.351562	-88.876305
3611.328125	-88.853294
3612.304688	-88.649544
3613.281250	-87.883484
3614.257812	-88.606384
3615.234375	-89.100815
3616.210938	-88.477486
3617.187500	-88.682274
3618.164062	-89.013741
3619.140625	-88.366539
3620.117188	-89.155243
3621.093750	-89.014923
3622.070312	-89.374077
3623.046875	-88.380508
3624.023438	-88.855026
3625.000000	-88.516289
3625.976562	-89.048729
3626.953125	-89.683540
3627.929688	-89.399002
3628.906250	-89.064850
3629.882812	-88.877075
3630.859375	-89.836510
3631.835938	-88.762833
3632.812500	-89.745857
3633.789062	-89.723328
3634.765625	-89.198219
3635.742188	-90.412819
3636.718750	-90.087608
3637.695312	-88.970406
3638.671875	-89.387985
3639.648438	-89.757416
3640.625000	-89.961723
3641.601562	-89.654640
3642.578125	-90.742546
3643.554688	-90.486389
3644.531250	-90.543732
3645.507812	-90.454597
3646.484375	-90.397530
3647.460938	-90.987175
3648.437500	-90.813522
3649.414062	-90.674156
3650.390625	-90.930763
3651.367188	-91.824379
3652.343750	-91.192513
3653.320312	-91.124313
3654.296875	-91.791023
3655.273438	-91.441269
3656.250000	-92.038628
3657.226562	-91.918602
3658.203125	-91.838921
3659.179688	-92.365494
3660.156250	-92.913651
3661.132812	-92.676979
3662.109375	-92.576752
3663.085938	-93.205360
3664.062500	-93.033272
3665.039062	-93.325401
3666.015625	-93.360672
3666.992188	-94.011345
3667.968750	-93.616936
3668.945312	-93.880547
3669.921875	-93.714310
3670.898438	-93.766304
3671.875000	-94.195671
3672.851562	-93.741920
3673.828125	-93.994560
3674.804688	-94.267708
3675.781250	-94.690147
3676.757812	-94.714859
3677.734375	-94.526939
3678.710938	-95.096207
3679.687500	-95.251617
3680.664062	-94.970428
3681.640625	-95.314125
3682.617188	-95.478378
3683.593750	-95.448883
3684.570312	-95.779877
3685.546875	-95.070282
3686.523438	-95.390869
3687.500000	-95.208168
3688.476562	-95.811447
3689.453125	-96.245369
3690.429688	-95.892387
3691.406250	-95.840240
3692.382812	-95.376442
3693.359375	-95.980972
3694.335938	-95.439110
3695.312500	-95.850189
3696.289062	-95.974907
3697.265625	-95.544121
3698.242188	-96.106499
3699.218750	-95.434143
3700.195312	-95.778839
3701.171875	-96.356583
3702.148438	-95.749504
3703.125000	-95.707520
3704.101562	-95.588875
3705.078125	-96.717537
3706.054688	-95.996620
3707.031250	-95.961975
3708.007812	-95.688782
3708.984375	-95.509773
3709.960938	-95.621819
3710.937500	-95.939194
3711.914062	-95.368378
3712.890625	-95.528229
3713.867188	-95.703674
3714.843750	-95.214905
3715.820312	-95.184624
3716.796875	-95.743767
3717.773438	-96.008926
3718.750000	-95.033318
3719.726562	-94.977577
3720.703125	-95.254028
3721.679688	-95.473167
3722.656250	-95.672043
3723.632812	-94.187851
3724.609375	-95.303146
3725.585938	-95.068207
3726.562500	-95.124802
3727.539062	-95.380791
3728.515625	-95.180779
3729.492188	-94.534882
3730.468750	-94.350693
3731.445312	-95.042191
3732.421875	-94.290237
3733.398438	-94.533607
3734.375000	-94.274254
3735.351562	-94.685234
3736.328125	-94.205765
3737.304688	-94.009155
3738.281250	-94.007744
3739.257812	-93.750717
3740.234375	-94.187691
3741.210938	-94.131989
3742.187500	-93.958031
3743.164062	-93.776367
3744.140625	-93.688339
3745.117188	-93.661591
3746.093750	-93.732155
3747.070312	-93.355835
3748.046875	-93.455887
3749.023438	-94.570961
3750.000000	-93.337395
3750.976562	-93.621475
3751.953125	-94.313667
3752.929688	-94.079155
3753.906250	-93.909859
3754.882812	-93.771187
3755.859375	-93.653282
3756.835938	-93.980415
3757.812500	-93.977219
3758.789062	-93.594330
3759.765625	-93.770905
3760.742188	-93.464447
3761.718750	-93.750237
3762.695312	-94.312202
3763.671875	-93.776657
3764.648438	-93.978249
3765.625000	-93.539185
3766.601562	-94.239319
3767.578125	-94.424881
3768.554688	-94.704498
3769.531250	-94.577728
3770.507812	-94.436974
3771.484375	-94.576889
3772.460938	-94.800484
3773.437500	-94.605606
3774.414062	-94.427582
3775.390625	-94.948799
3776.367188	-94.620171
3777.343750	-94.342422
3778.320312	-94.599724
3779.296875	-94.679459
3780.273438	-94.656563
3781.250000	-95.992607
3782.226562	-95.731255
3783.203125	-94.981949
3784.179688	-94.982880
3785.156250	-95.471451
3786.132812	-95.116028
3787.109375	-95.261765
3788.085938	-95.130066
3789.062500	-95.561844
3790.039062	-95.367081
3791.015625	-95.237465
3791.992188	-95.566811
3792.968750	-95.093597
3793.945312	-95.672119
3794.921875	-95.554214
3795.898438	-94.613335
3796.875000	-95.024117
3797.851562	-95.874603
3798.828125	-94.983368
3799.804688	-95.413620
3800.781250	-95.222038
3801.757812	-95.123924
3802.734375	-95.677284
3803.710938	-95.865883
3804.687500	-94.760063
3805.664062	-95.184601
3806.640625	-95.182167
3807.617188	-95.497635
3808.593750	-95.708801
3809.570312	-94.853027
3810.546875	-95.736015
3811.523438	-95.604248
3812.500000	-95.678482
3813.476562	-95.835068
3814.453125	-95.823952
3815.429688	-96.282944
3816.406250	-95.645706
3817.382812	-95.416862
3818.359375	-95.441315
3819.335938	-96.158890
3820.312500	-96.065895
3821.289062	-95.427795
3822.265625	-95.394028
3823.242188	-95.844589
3824.218750	-95.309555
3825.195312	-96.295433
3826.171875	-95.173981
3827.148438	-95.401611
3828.125000	-96.361122
3829.101562	-96.247238
3830.078125	-95.742966
3831.054688	-96.290230
3832.031250	-95.873352
3833.007812	-95.995972
3833.984375	-96.141396
3834.960938	-96.331100
3835.937500	-96.510750
3836.914062	-95.624069
3837.890625	-95.922874
3838.867188	-95.776970
3839.843750	-95.324959
3840.820312	-96.601875
3841.796875	-95.809044
3842.773438	-95.491730
3843.750000	-95.624275
3844.726562	-95.683540
3845.703125	-96.328499
3846.679688	-95.779778
3847.656250	-96.441956
3848.632812	-94.760277
3849.609375	-95.871170
3850.585938	-95.842834
3851.562500	-95.420456
3852.539062	-95.469490
3853.515625	-95.717873
3854.492188	-94.623116
3855.468750	-95.295082
3856.445312	-95.166031
3857.421875	-95.657570
3858.398438	-95.536575
3859.375000	-94.617645
3860.351562	-95.585533
3861.328125	-94.969177
3862.304688	-95.265816
3863.281250	-94.790298
3864.257812	-95.188774
3865.234375	-95.074242
3866.210938	-95.253929
3867.187500	-95.296242
3868.164062	-94.681290
3869.140625	-95.489540
3870.117188	-94.377365
3871.093750	-94.890587
3872.070312	-94.621033
3873.046875	-95.098595
3874.023438	-94.513168
3875.000000	-93.873222
3875.976562	-94.751991
3876.953125	-94.297157
3877.929688	-94.749458
3878.906250	-94.841354
3879.882812	-93.828674
3880.859375	-94.347351
3881.835938	-94.482765
3882.812500	-94.342285
3883.789062	-94.170418
3884.765625	-93.899529
3885.742188	-94.822777
3886.718750	-93.521767
3887.695312	-94.279999
3888.671875	-93.248398
3889.648438	-93.234665
3890.625000	-94.103630
3891.601562	-93.581894
3892.578125	-93.896057
3893.554688	-93.620789
3894.531250	-94.085983
3895.507812	-93.774887
3896.484375	-93.224998
3897.460938	-93.530083
3898.437500	-93.670319
3899.414062	-94.557228
3900.390625	-93.556892
3901.367188	-93.300514
3902.343750	-92.886948
3903.320312	-93.042511
3904.296875	-93.028564
3905.273438	-93.592506
3906.250000	-93.418671
3907.226562	-93.136345
3908.203125	-92.487267
3909.179688	-93.277306
3910.156250	-93.679970
3911.132812	-93.005241
3912.109375	-93.839378
3913.085938	-93.150337
3914.062500	-93.380966
3915.039062	-93.175537
3916.015625	-92.959503
3916.992188	-93.580482
3917.968750	-92.897057
3918.945312	-93.524200
3919.921875	-92.603256
3920.898438	-93.626068
3921.875000	-92.511307
3922.851562	-92.303726
3923.828125	-94.264847
3924.804688	-93.683975
3925.781250	-93.390007
3926.757812	-93.271729
3927.734375	-93.234619
3928.710938	-93.579994
3929.687500	-93.141670
3930.664062	-93.692535
3931.640625	-94.123566
3932.617188	-92.657829
3933.593750	-92.670784
3934.570312	-93.777458
3935.546875	-93.803741
3936.523438	-93.330811
3937.500000	-93.798546
3938.476562	-94.009781
3939.453125	-94.416229
3940.429688	-94.067406
3941.406250	-94.273247
3942.382812	-94.134727
3943.359375	-94.297043
3944.335938	-93.967964
3945.312500	-94.678894
3946.289062	-95.406982
3947.265625	-94.641930
3948.242188	-94.452835
3949.218750	-94.547081
3950.195312	-95.231659
3951.171875	-95.882172
3952.148438	-95.134033
3953.125000	-94.699738
3954.101562	-95.300949
3955.078125	-95.804466
3956.054688	-95.621933
3957.031250	-96.142754
3958.007812	-96.314987
3958.984375	-96.181374
3959.960938	-96.406425
3960.937500	-96.346260
3961.914062	-96.753784
3962.890625	-96.266266
3963.867188	-96.007721
3964.843750	-96.605408
3965.820312	-96.584343
3966.796875	-96.218048
3967.773438	-96.465157
3968.750000	-96.065117
3969.726562	-96.565544
3970.703125	-96.488434
3971.679688	-96.873703
3972.656250	-96.425293
3973.632812	-97.242233
3974.609375	-96.984589
3975.585938	-97.370041
3976.562500	-97.346069
3977.539062	-97.006523
3978.515625	-97.413185
3979.492188	-96.883308
3980.468750	-96.577721
3981.445312	-97.141212
3982.421875	-97.159332
3983.398438	-97.127678
3984.375000	-97.229538
3985.351562	-96.957779
3986.328125	-97.475090
3987.304688	-97.033409
3988.281250	-97.190285
3989.257812	-96.694717
3990.234375	-97.401505
3991.210938	-97.797203
3992.187500	-97.503464
3993.164062	-97.385635
3994.140625	-98.574234
3995.117188	-97.567383
3996.093750	-97.394608
3997.070312	-97.948738
3998.046875	-97.791328
3999.023438	-97.846497
4000.000000	-97.728531
4000.976562	-97.418953
4001.953125	-98.038422
4002.929688	-97.986160
4003.906250	-98.425583
4004.882812	-97.956795
4005.859375	-97.813217
4006.835938	-97.863266
4007.812500	-98.621841
4008.789062	-98.010010
4009.765625	-98.122437
4010.742188	-98.642410
4011.718750	-98.408188
4012.695312	-97.398064
4013.671875	-98.250359
4014.648438	-98.150642
4015.625000	-97.789291
4016.601562	-97.790489
4017.578125	-97.737030
4018.554688	-98.330818
4019.531250	-97.953362
4020.507812	-98.091141
4021.484375	-98.087402
4022.460938	-97.904335
4023.437500	-97.860252
4024.414062	-98.171318
4025.390625	-97.515854
4026.367188	-97.767113
4027.343750	-97.701431
4028.320312	-97.910744
4029.296875	-98.140465
4030.273438	-98.012535
4031.250000	-97.915115
4032.226562	-97.669937
4033.203125	-98.042114
4034.179688	-98.034912
4035.156250	-98.135765
4036.132812	-98.396576
4037.109375	-97.608391
4038.085938	-98.429222
4039.062500	-97.721504
4040.039062	-97.827415
4041.015625	-97.802452
4041.992188	-98.074982
4042.968750	-98.160263
4043.945312	-98.659203
4044.921875	-98.510841
4045.898438	-98.386726
4046.875000	-98.540909
4047.851562	-98.781990
4048.828125	-98.064117
4049.804688	-98.166855
4050.781250	-98.566643
4051.757812	-98.225716
4052.734375	-98.702225
4053.710938	-98.716049
4054.687500	-98.338425
4055.664062	-98.507835
4056.640625	-98.738800
4057.617188	-98.012535
4058.593750	-99.149269
4059.570312	-98.836449
4060.546875	-98.473907
4061.523438	-98.987770
4062.500000	-98.276169
4063.476562	-99.252113
4064.453125	-99.209480
4065.429688	-98.539230
4066.406250	-98.314423
4067.382812	-98.881607
4068.359375	-98.778465
4069.335938	-98.994171
4070.312500	-98.742485
4071.289062	-99.206619
4072.265625	-99.026390
4073.242188	-99.320007
4074.218750	-98.842628
4075.195312	-98.978043
4076.171875	-98.647278
4077.148438	-98.543091
4078.125000	-98.998917
4079.101562	-98.796196
4080.078125	-99.125854
4081.054688	-98.731773
4082.031250	-98.838226
4083.007812	-98.659546
4083.984375	-99.284950
4084.960938	-98.935326
4085.937500	-98.709961
4086.914062	-98.718773
4087.890625	-99.197655
4088.867188	-98.639816
4089.843750	-98.624290
4090.820312	-99.322685
4091.796875	-98.215279
4092.773438	-99.026115
4093.750000	-98.760788
4094.726562	-98.949364
4095.703125	-98.779091
4096.679688	-99.259941
4097.656250	-98.967758
4098.632812	-98.922211
4099.609375	-99.611885
4100.585938	-99.183678
4101.562500	-99.216225
4102.539062	-99.015450
4103.515625	-98.682442
4104.492188	-99.093567
4105.468750	-98.492020
4106.445312	-99.146118
4107.421875	-99.201195
4108.398438	-99.023453
4109.375000	-98.876205
4110.351562	-99.565079
4111.328125	-98.643303
4112.304688	-99.019386
4113.281250	-99.018585
4114.257812	-99.020981
4115.234375	-98.804413
4116.210938	-99.304337
4117.187500	-99.249229
4118.164062	-99.450859
4119.140625	-99.015015
4120.117188	-98.655212
4121.093750	-99.315643
4122.070312	-99.161568
4123.046875	-99.029663
4124.023438	-99.143608
4125.000000	-99.109291
4125.976562	-98.885338
4126.953125	-99.511406
4127.929688	-99.456017
4128.906250	-99.604828
4129.882812	-99.465324
4130.859375	-99.577156
4131.835938	-99.241402
4132.812500	-99.211121
4133.789062	-99.342613
4134.765625	-99.426605
4135.742188	-99.538177
4136.718750	-98.913956
4137.695312	-98.986961
4138.671875	-99.402718
4139.648438	-99.240326
4140.625000	-99.127098
4141.601562	-99.257271
4142.578125	-99.247093
4143.554688	-99.857368
4144.531250	-99.248657
4145.507812	-99.508965
4146.484375	-99.658371
4147.460938	-99.473656
4148.437500	-99.346512
4149.414062	-99.532158
4150.390625	-99.883522
4151.367188	-99.930695
4152.343750	-99.829170
4153.320312	-99.318016
4154.296875	-99.731918
4155.273438	-99.658195
4156.250000	-99.171425
4157.226562	-99.912651
4158.203125	-99.820030
4159.179688	-100.163338
4160.156250	-99.547218
4161.132812	-99.545769
4162.109375	-99.937210
4163.085938	-100.283409
4164.062500	-99.692459
4165.039062	-99.731125
4166.015625	-100.323074
4166.992188	-100.098457
4167.968750	-99.806374
4168.945312	-99.880798
4169.921875	-100.654861
4170.898438	-100.267296
4171.875000	-100.099327
4172.851562	-100.035851
4173.828125	-99.955688
4174.804688	-99.782455
4175.781250	-100.124374
4176.757812	-99.925751
4177.734375	-99.854805
4178.710938	-99.834824
4179.687500	-100.032082
4180.664062	-100.322624
4181.640625	-100.331390
4182.617188	-100.439194
4183.593750	-100.104179
4184.570312	-100.046059
4185.546875	-100.220009
4186.523438	-100.148827
4187.500000	-100.132660
4188.476562	-100.191887
4189.453125	-100.202415
4190.429688	-100.137939
4191.406250	-100.466621
4192.382812	-100.004997
4193.359375	-100.030449
4194.335938	-99.960648
4195.312500	-100.104553
4196.289062	-100.196159
4197.265625	-100.036018
4198.242188	-100.243050
4199.218750	-100.333115
4200.195312	-99.504219
4201.171875	-100.487373
4202.148438	-100.018951
4203.125000	-100.186646
4204.101562	-100.303993
4205.078125	-100.271637
4206.054688	-100.114944
4207.031250	-99.854744
4208.007812	-100.339424
4208.984375	-100.139465
4209.960938	-100.507988
4210.937500	-100.086418
4211.914062	-100.090355
4212.890625	-99.784660
4213.867188	-100.176056
4214.843750	-100.320396
4215.820312	-100.032959
4216.796875	-100.093010
4217.773438	-100.215019
4218.750000	-100.433685
4219.726562	-100.358200
4220.703125	-100.098877
4221.679688	-100.121269
4222.656250	-100.564407
4223.632812	-99.703903
4224.609375	-100.038139
4225.585938	-99.952232
4226.562500	-100.207542
4227.539062	-100.348862
4228.515625	-99.895561
4229.492188	-100.419571
4230.468750	-100.258873
4231.445312	-99.877907
4232.421875	-100.122078
4233.398438	-100.678207
4234.375000	-100.071404
4235.351562	-100.280159
4236.328125	-99.802353
4237.304688	-100.611023
4238.281250	-100.574593
4239.257812	-99.951820
4240.234375	-100.144112
4241.210938	-100.264061
4242.187500	-100.434425
4243.164062	-100.312851
4244.140625	-100.335136
4245.117188	-100.376076
4246.093750	-100.190895
4247.070312	-100.299744
4248.046875	-99.812454
4249.023438	-100.419731
4250.000000	-100.552307
4250.976562	-100.597450
4251.953125	-100.339737
4252.929688	-100.779182
4253.906250	-100.676514
4254.882812	-100.311798
4255.859375	-100.450745
4256.835938	-100.169853
4257.812500	-100.683388
4258.789062	-100.516899
4259.765625	-100.625404
4260.742188	-100.527046
4261.718750	-100.765442
4262.695312	-100.356804
4263.671875	-100.738808
4264.648438	-100.359329
4265.625000	-100.374062
4266.601562	-100.544670
4267.578125	-100.575256
4268.554688	-100.704185
4269.531250	-100.487038
4270.507812	-100.419991
4271.484375	-100.505569
4272.460938	-100.745857
4273.437500	-100.924530
4274.414062	-101.001892
4275.390625	-100.678635
4276.367188	-100.709251
4277.343750	-101.176720
4278.320312	-100.631310
4279.296875	-100.748505
4280.273438	-100.533691
4281.250000	-100.508293
4282.226562	-100.650177
4283.203125	-100.536293
4284.179688	-100.439049
4285.156250	-100.413422
4286.132812	-100.896530
4287.109375	-100.930542
4288.085938	-100.456726
4289.062500	-100.736794
4290.039062	-101.083420
4291.015625	-100.860626
4291.992188	-100.695206
4292.968750	-100.745750
4293.945312	-100.710930
4294.921875	-100.733566
4295.898438	-100.737862
4296.875000	-100.825737
4297.851562	-100.673790
4298.828125	-100.702965
4299.804688	-100.891205
4300.781250	-100.976562
4301.757812	-100.451309
4302.734375	-100.544907
4303.710938	-100.437309
4304.687500	-100.664116
4305.664062	-100.780212
4306.640625	-100.682739
4307.617188	-100.357841
4308.593750	-100.495178
4309.570312	-100.808121
4310.546875	-100.383484
4311.523438	-100.625015
4312.500000	-100.524399
4313.476562	-100.421822
4314.453125	-100.302902
4315.429688	-100.576721
4316.406250	-99.995308
4317.382812	-99.942009
4318.359375	-100.026581
4319.335938	-100.425240
4320.312500	-100.191574
4321.289062	-100.210571
4322.265625	-99.753365
4323.242188	-100.118179
4324.218750	-99.560577
4325.195312	-100.076935
4326.171875	-99.633713
4327.148438	-100.038422
4328.125000	-99.805130
4329.101562	-99.180832
4330.078125	-99.410332
4331.054688	-99.685158
4332.031250	-99.943375
4333.007812	-99.513954
4333.984375	-99.270668
4334.960938	-99.729874
4335.937500	-99.779160
4336.914062	-99.234802
4337.890625	-99.279747
4338.867188	-98.702965
4339.843750	-99.088783
4340.820312	-99.407402
4341.796875	-99.085037
4342.773438	-98.673111
4343.750000	-98.431641
4344.726562	-99.246277
4345.703125	-99.571289
4346.679688	-98.905815
4347.656250	-98.846069
4348.632812	-98.710342
4349.609375	-98.528885
4350.585938	-98.392639
4351.562500	-99.071472
4352.539062	-99.008339
4353.515625	-98.626740
4354.492188	-98.403557
4355.468750	-98.095009
4356.445312	-98.818375
4357.421875	-97.807487
4358.398438	-98.535126
4359.375000	-99.091438
4360.351562	-98.921501
4361.328125	-98.091698
4362.304688	-98.553841
4363.281250	-98.064011
4364.257812	-98.581856
4365.234375	-98.739555
4366.210938	-98.384254
4367.187500	-98.696960
4368.164062	-97.822563
4369.140625	-97.360352
4370.117188	-97.405792
4371.093750	-97.690186
4372.070312	-96.446373
4373.046875	-97.120590
4374.023438	-97.528435
4375.000000	-97.053986
4375.976562	-95.238823
4376.953125	-95.870705
4377.929688	-96.534935
4378.906250	-94.391769
4379.882812	-95.483704
4380.859375	-95.324326
4381.835938	-95.330811
4382.812500	-94.265869
4383.789062	-95.011383
4384.765625	-94.395523
4385.742188	-94.931534
4386.718750	-94.050423
4387.695312	-94.164909
4388.671875	-94.234741
4389.648438	-93.468498
4390.625000	-92.364784
4391.601562	-91.992302
4392.578125	-91.418419
4393.554688	-92.469879
4394.531250	-91.018860
4395.507812	-91.880325
4396.484375	-91.813560
4397.460938	-91.264450
4398.437500	-90.461037
4399.414062	-91.900253
4400.390625	-90.849304
4401.367188	-89.478027
4402.343750	-88.771210
4403.320312	-90.142509
4404.296875	-89.864502
4405.273438	-89.601654
4406.250000	-88.526077
4407.226562	-90.303055
4408.203125	-88.312683
4409.179688	-88.674660
4410.156250	-89.352104
4411.132812	-89.079506
4412.109375	-88.146797
4413.085938	-89.667336
4414.062500	-90.926491
4415.039062	-89.034172
4416.015625	-89.738754
4416.992188	-88.124992
4417.968750	-88.532585
4418.945312	-89.256660
4419.921875	-87.913345
4420.898438	-89.232033
4421.875000	-90.432129
4422.851562	-88.404747
4423.828125	-88.951813
4424.804688	-90.724289
4425.781250	-89.984924
4426.757812	-90.069405
4427.734375	-88.593445
4428.710938	-88.434753
4429.687500	-89.351250
4430.664062	-88.775642
4431.640625	-90.225044
4432.617188	-90.042488
4433.593750	-89.676857
4434.570312	-90.350815
4435.546875	-90.841248
4436.523438	-91.069466
4437.500000	-89.947197
4438.476562	-91.140991
4439.453125	-92.084892
4440.429688	-88.606110
4441.406250	-89.003204
4442.382812	-92.183945
4443.359375	-90.432465
4444.335938	-91.004265
4445.312500	-91.933479
4446.289062	-93.012520
4447.265625	-92.231636
4448.242188	-90.827415
4449.218750	-91.949165
4450.195312	-93.369095
4451.171875	-91.789513
4452.148438	-90.885902
4453.125000	-91.305458
4454.101562	-91.290764
4455.078125	-90.981651
4456.054688	-91.728867
4457.031250	-92.598900
4458.007812	-93.245613
4458.984375	-93.580826
4459.960938	-92.487793
4460.937500	-93.512215
4461.914062	-92.966759
4462.890625	-92.701050
4463.867188	-92.611076
4464.843750	-92.236099
4465.820312	-92.871864
4466.796875	-93.067772
4467.773438	-91.838005
4468.750000	-92.178581
4469.726562	-93.941154
4470.703125	-95.357307
4471.679688	-93.406754
4472.656250	-93.297363
4473.632812	-94.777664
4474.609375	-94.166023
4475.585938	-94.640770
4476.562500	-93.328285
4477.539062	-94.123116
4478.515625	-93.930382
4479.492188	-93.299850
4480.468750	-95.051323
4481.445312	-95.310478
4482.421875	-93.594688
4483.398438	-95.042297
4484.375000	-96.429649
4485.351562	-95.068062
4486.328125	-96.031769
4487.304688	-96.634491
4488.281250	-95.987740
4489.257812	-97.084167
4490.234375	-95.603455
4491.210938	-95.618423
4492.187500	-96.125275
4493.164062	-96.221909
4494.140625	-96.357285
4495.117188	-96.465279
4496.093750	-96.094482
4497.070312	-96.856499
4498.046875	-96.438370
4499.023438	-97.388916
4500.000000	-97.919594
4500.976562	-97.130814
4501.953125	-97.822182
4502.929688	-97.839767
4503.906250	-96.625671
4504.882812	-96.541939
4505.859375	-97.369438
4506.835938	-97.184273
4507.812500	-96.886238
4508.789062	-97.027542
4509.765625	-97.018707
4510.742188	-97.538750
4511.718750	-97.539680
4512.695312	-98.029594
4513.671875	-98.207565
4514.648438	-97.652275
4515.625000	-97.699860
4516.601562	-98.034500
4517.578125	-97.459251
4518.554688	-96.997406
4519.531250	-97.635933
4520.507812	-97.567497
4521.484375	-97.813675
4522.460938	-97.026482
4523.437500	-97.478508
4524.414062	-97.851845
4525.390625	-97.096230
4526.367188	-97.234840
4527.343750	-96.917908
4528.320312	-97.188637
4529.296875	-97.244148
4530.273438	-96.643692
4531.250000	-97.150276
4532.226562	-97.034065
4533.203125	-96.331284
4534.179688	-96.651604
4535.156250	-96.807381
4536.132812	-96.614502
4537.109375	-96.266045
4538.085938	-95.265686
4539.062500	-96.524620
4540.039062	-96.701889
4541.015625	-96.061104
4541.992188	-96.102829
4542.968750	-96.109039
4543.945312	-95.622963
4544.921875	-96.213120
4545.898438	-96.280655
4546.875000	-96.373802
4547.851562	-96.210190
4548.828125	-95.961090
4549.804688	-94.682922
4550.781250	-95.932922
4551.757812	-96.339630
4552.734375	-95.568222
4553.710938	-95.704613
4554.687500	-96.141533
4555.664062	-96.253502
4556.640625	-95.314194
4557.617188	-95.370071
4558.593750	-95.888046
4559.570312	-95.615517
4560.546875	-95.419899
4561.523438	-95.882088
4562.500000	-95.209137
4563.476562	-94.700508
4564.453125	-95.150452
4565.429688	-95.256798
4566.406250	-95.660706
4567.382812	-95.421997
4568.359375	-95.066116
4569.335938	-95.215279
4570.312500	-94.898483
4571.289062	-94.918526
4572.265625	-94.889664
4573.242188	-95.164818
4574.218750	-95.093277
4575.195312	-95.067162
4576.171875	-95.442719
4577.148438	-95.894653
4578.125000	-95.025002
4579.101562	-95.051788
4580.078125	-95.531105
4581.054688	-94.929131
4582.031250	-95.597755
4583.007812	-95.048920
4583.984375	-94.506477
4584.960938	-94.970657
4585.937500	-94.893898
4586.914062	-95.117119
4587.890625	-95.781227
4588.867188	-95.167870
4589.843750	-94.738243
4590.820312	-95.357849
4591.796875	-94.720337
4592.773438	-95.567856
4593.750000	-95.477821
4594.726562	-95.950783
4595.703125	-94.880180
4596.679688	-95.156502
4597.656250	-95.553314
4598.632812	-95.214584
4599.609375	-95.593811
4600.585938	-96.231522
4601.562500	-96.106308
4602.539062	-96.802017
4603.515625	-95.745071
4604.492188	-95.828819
4605.468750	-96.526810
4606.445312	-97.056076
4607.421875	-97.098511
4608.398438	-97.261497
4609.375000	-95.885330
4610.351562	-96.632210
4611.328125	-97.961937
4612.304688	-97.316643
4613.281250	-97.162964
4614.257812	-97.366516
4615.234375	-97.616814
4616.210938	-98.306831
4617.187500	-97.492516
4618.164062	-98.073097
4619.140625	-98.130547
4620.117188	-98.802330
4621.093750	-98.233238
4622.070312	-98.861435
4623.046875	-98.634491
4624.023438	-98.161674
4625.000000	-99.372505
4625.976562	-99.108009
4626.953125	-98.804970
4627.929688	-99.182175
4628.906250	-99.595963
4629.882812	-99.112885
4630.859375	-98.728592
4631.835938	-99.556175
4632.812500	-98.810204
4633.789062	-99.533447
4634.765625	-98.858521
4635.742188	-99.012306
4636.718750	-99.738792
4637.695312	-99.476883
4638.671875	-99.626022
4639.648438	-98.703033
4640.625000	-99.479485
4641.601562	-99.857315
4642.578125	-100.226768
4643.554688	-99.522987
4644.531250	-99.458382
4645.507812	-99.446045
4646.484375	-99.702682
4647.460938	-99.896866
4648.437500	-100.194984
4649.414062	-100.285049
4650.390625	-99.666222
4651.367188	-100.132545
4652.343750	-100.194809
4653.320312	-100.322311
4654.296875	-100.710266
4655.273438	-100.556480
4656.250000	-100.167206
4657.226562	-100.341896
4658.203125	-100.538971
4659.179688	-100.551514
4660.156250	-99.930641
4661.132812	-100.242256
4662.109375	-100.021255
4663.085938	-100.574066
4664.062500	-100.250748
4665.039062	-100.692337
4666.015625	-100.697784
4666.992188	-100.409325
4667.968750	-100.271278
4668.945312	-100.388039
4669.921875	-100.966431
4670.898438	-100.601959
4671.875000	-100.424744
4672.851562	-99.789513
4673.828125	-100.323288
4674.804688	-101.067497
4675.781250	-100.490364
4676.757812	-100.876007
4677.734375	-100.551712
4678.710938	-100.484993
4679.687500	-100.341248
4680.664062	-100.814255
4681.640625	-100.865990
4682.617188	-100.369011
4683.593750	-100.911041
4684.570312	-100.881317
4685.546875	-100.685814
4686.523438	-100.516747
4687.500000	-100.183258
4688.476562	-100.508728
4689.453125	-100.133530
4690.429688	-100.971855
4691.406250	-100.913383
4692.382812	-100.314659
4693.359375	-100.287766
4694.335938	-100.341461
4695.312500	-100.768883
4696.289062	-100.312088
4697.265625	-100.727875
4698.242188	-99.909676
4699.218750	-100.482506
4700.195312	-100.400002
4701.171875	-100.524635
4702.148438	-100.109512
4703.125000	-100.190704
4704.101562	-99.186447
4705.078125	-100.146744
4706.054688	-100.409256
4707.031250	-100.103127
4708.007812	-100.303101
4708.984375	-100.114403
4709.960938	-100.643654
4710.937500	-100.841949
4711.914062	-100.059761
4712.890625	-100.349297
4713.867188	-99.682869
4714.843750	-100.322212
4715.820312	-99.754379
4716.796875	-100.197044
4717.773438	-100.352409
4718.750000	-100.253700
4719.726562	-100.757172
4720.703125	-99.911545
4721.679688	-100.156860
4722.656250	-99.877495
4723.632812	-100.055084
4724.609375	-100.404350
4725.585938	-100.434937
4726.562500	-100.083466
4727.539062	-99.552994
4728.515625	-100.065712
4729.492188	-99.783630
4730.468750	-100.529099
4731.445312	-99.897285
4732.421875	-99.792580
4733.398438	-99.543343
4734.375000	-100.795021
4735.351562	-100.189369
4736.328125	-100.284317
4737.304688	-99.784523
4738.281250	-99.845306
4739.257812	-100.000061
4740.234375	-100.107452
4741.210938	-100.334785
4742.187500	-100.591515
4743.164062	-100.084923
4744.140625	-99.940033
4745.117188	-100.284256
4746.093750	-99.555733
4747.070312	-99.676758
4748.046875	-100.211601
4749.023438	-99.241013
4750.000000	-99.894096
4750.976562	-100.448875
4751.953125	-99.848305
4752.929688	-99.946716
4753.906250	-100.337425
4754.882812	-100.123344
4755.859375	-100.313248
4756.835938	-100.556587
4757.812500	-100.358749
4758.789062	-100.641876
4759.765625	-99.919945
4760.742188	-100.079079
4761.718750	-100.397743
4762.695312	-99.884026
4763.671875	-100.227264
4764.648438	-99.896652
4765.625000	-100.610023
4766.601562	-100.618111
4767.578125	-99.949959
4768.554688	-99.998764
4769.531250	-100.548126
4770.507812	-100.277374
4771.484375	-101.135063
4772.460938	-100.077911
4773.437500	-100.002312
4774.414062	-100.203941
4775.390625	-100.362640
4776.367188	-101.287483
4777.343750	-100.649208
4778.320312	-100.058098
4779.296875	-100.817139
4780.273438	-100.715302
4781.250000	-100.664375
4782.226562	-100.707970
4783.203125	-100.836967
4784.179688	-100.899429
4785.156250	-100.525482
4786.132812	-101.227905
4787.109375	-101.489716
4788.085938	-100.628639
4789.062500	-101.429764
4790.039062	-101.104408
4791.015625	-101.161026
4791.992188	-101.391815
4792.968750	-101.181946
4793.945312	-101.700546
4794.921875	-101.538925
4795.898438	-101.395088
4796.875000	-101.344215
4797.851562	-101.294983
4798.828125	-101.304047
4799.804688	-101.189888
4800.781250	-101.285629
4801.757812	-101.864479
4802.734375	-101.715607
4803.710938	-101.361626
4804.687500	-101.727211
4805.664062	-100.892792
4806.640625	-101.800659
4807.617188	-101.585304
4808.593750	-101.575287
4809.570312	-101.989426
4810.546875	-101.824127
4811.523438	-101.906189
4812.500000	-101.672096
4813.476562	-101.630554
4814.453125	-102.228523
4815.429688	-102.037338
4816.406250	-102.103752
4817.382812	-101.924454
4818.359375	-102.261787
4819.335938	-101.608498
4820.312500	-101.866661
4821.289062	-102.318634
4822.265625	-102.561737
4823.242188	-102.075203
4824.218750	-102.024559
4825.195312	-102.139130
4826.171875	-102.033562
4827.148438	-101.926102
4828.125000	-102.150009
4829.101562	-102.113091
4830.078125	-102.114014
4831.054688	-102.459976
4832.031250	-102.224045
4833.007812	-102.106674
4833.984375	-102.582397
4834.960938	-102.135605
4835.937500	-102.092705
4836.914062	-101.901230
4837.890625	-101.972595
4838.867188	-102.085411
4839.843750	-102.347237
4840.820312	-102.049911
4841.796875	-102.297417
4842.773438	-101.819664
4843.750000	-101.895309
4844.726562	-101.897888
4845.703125	-102.160324
4846.679688	-102.284889
4847.656250	-101.883568
4848.632812	-102.315735
4849.609375	-101.746651
4850.585938	-102.208977
4851.562500	-101.659157
4852.539062	-102.304825
4853.515625	-101.835114
4854.492188	-102.372818
4855.468750	-101.946060
4856.445312	-102.085960
4857.421875	-101.800735
4858.398438	-101.666435
4859.375000	-102.494156
4860.351562	-101.747116
4861.328125	-102.062660
4862.304688	-101.577423
4863.281250	-102.070175
4864.257812	-102.342163
4865.234375	-102.019333
4866.210938	-102.210510
4867.187500	-102.018250
4868.164062	-101.925026
4869.140625	-102.151917
4870.117188	-102.231110
4871.093750	-101.746506
4872.070312	-102.143616
4873.046875	-102.438293
4874.023438	-101.987419
4875.000000	-101.829445
4875.976562	-101.968216
4876.953125	-102.063362
4877.929688	-102.372581
4878.906250	-102.156212
4879.882812	-102.103432
4880.859375	-101.934067
4881.835938	-101.901260
4882.812500	-101.965454
4883.789062	-101.805557
4884.765625	-101.587234
4885.742188	-101.639351
4886.718750	-101.474075
4887.695312	-102.006432
4888.671875	-102.386551
4889.648438	-102.062889
4890.625000	-101.816093
4891.601562	-101.653069
4892.578125	-102.224182
4893.554688	-102.000122
4894.531250	-101.457581
4895.507812	-102.286438
4896.484375	-102.377998
4897.460938	-102.111794
4898.437500	-102.301605
4899.414062	-102.384575
4900.390625	-102.217613
4901.367188	-102.008423
4902.343750	-102.041077
4903.320312	-102.574516
4904.296875	-102.194145
4905.273438	-102.145706
4906.250000	-102.381065
4907.226562	-102.013939
4908.203125	-101.974930
4909.179688	-102.416710
4910.156250	-101.991325
4911.132812	-102.367455
4912.109375	-102.410744
4913.085938	-102.334534
4914.062500	-102.472343
4915.039062	-102.021019
4916.015625	-102.065575
4916.992188	-102.786301
4917.968750	-102.628136
4918.945312	-102.211830
4919.921875	-102.461105
4920.898438	-102.441963
4921.875000	-102.239288
4922.851562	-102.486816
4923.828125	-102.211899
4924.804688	-102.677292
4925.781250	-102.389732
4926.757812	-102.865173
4927.734375	-102.301743
4928.710938	-102.560326
4929.687500	-102.408737
4930.664062	-102.154243
4931.640625	-101.970207
4932.617188	-102.609863
4933.593750	-102.635262
4934.570312	-102.868271
4935.546875	-102.577759
4936.523438	-102.604988
4937.500000	-102.287079
4938.476562	-102.758759
4939.453125	-102.638657
4940.429688	-102.946724
4941.406250	-102.429459
4942.382812	-102.571968
4943.359375	-102.579399
4944.335938	-102.633446
4945.312500	-102.655281
4946.289062	-102.583832
4947.265625	-103.070877
4948.242188	-102.744377
4949.218750	-102.877365
4950.195312	-102.941765
4951.171875	-102.690643
4952.148438	-102.591217
4953.125000	-102.832146
4954.101562	-102.581215
4955.078125	-102.634003
4956.054688	-102.504669
4957.031250	-102.828064
4958.007812	-102.608887
4958.984375	-102.804932
4959.960938	-102.562866
4960.937500	-102.753677
4961.914062	-102.648338
4962.890625	-103.053131
4963.867188	-102.510498
4964.843750	-102.678917
4965.820312	-103.203812
4966.796875	-102.917114
4967.773438	-102.754372
4968.750000	-103.000488
4969.726562	-102.640182
4970.703125	-102.663246
4971.679688	-102.642471
4972.656250	-103.008308
4973.632812	-102.734749
4974.609375	-102.971329
4975.585938	-102.808258
4976.562500	-102.868050
4977.539062	-102.776192
4978.515625	-103.168556
4979.492188	-102.838684
4980.468750	-102.893570
4981.445312	-102.759880
4982.421875	-102.849854
4983.398438	-102.610573
4984.375000	-103.065231
4985.351562	-102.953499
4986.328125	-102.671814
4987.304688	-102.776436
4988.281250	-102.739410
4989.257812	-102.517677
4990.234375	-102.996712
4991.210938	-102.806053
4992.187500	-102.959396
4993.164062	-103.073608
4994.140625	-102.885185
4995.117188	-102.784798
4996.093750	-102.937508
4997.070312	-103.111626
4998.046875	-103.101097
4999.023438	-102.923607
5000.000000	-102.804855
5000.976562	-102.748779
5001.953125	-103.005478
5002.929688	-102.761780
5003.906250	-102.879745
5004.882812	-103.023872
5005.859375	-103.103569
5006.835938	-103.000641
5007.812500	-102.685631
5008.789062	-102.986076
5009.765625	-103.517113
5010.742188	-103.040649
5011.718750	-103.160652
5012.695312	-102.704735
5013.671875	-103.002220
5014.648438	-102.991486
5015.625000	-103.068481
5016.601562	-102.954605
5017.578125	-102.624512
5018.554688	-102.863579
5019.531250	-102.799110
5020.507812	-103.098778
5021.484375	-102.682846
5022.460938	-102.727600
5023.437500	-102.773430
5024.414062	-102.993774
5025.390625	-102.814156
5026.367188	-103.114243
5027.343750	-102.867111
5028.320312	-103.030182
5029.296875	-102.968941
5030.273438	-103.166992
5031.250000	-102.879036
5032.226562	-102.839447
5033.203125	-102.624535
5034.179688	-103.003670
5035.156250	-102.886475
5036.132812	-103.192131
5037.109375	-102.998009
5038.085938	-103.081100
5039.062500	-103.155907
5040.039062	-102.968193
5041.015625	-102.974518
5041.992188	-102.897324
5042.968750	-102.832062
5043.945312	-102.941055
5044.921875	-102.899376
5045.898438	-103.066185
5046.875000	-102.971756
5047.851562	-103.162018
5048.828125	-103.077156
5049.804688	-102.786331
5050.781250	-103.118599
5051.757812	-103.269730
5052.734375	-102.678490
5053.710938	-102.842957
5054.687500	-103.040947
5055.664062	-102.824615
5056.640625	-102.873650
5057.617188	-102.871170
5058.593750	-103.375641
5059.570312	-103.122276
5060.546875	-102.614464
5061.523438	-103.253311
5062.500000	-102.639755
5063.476562	-102.815117
5064.453125	-103.100502
5065.429688	-103.141129
5066.406250	-102.971283
5067.382812	-103.014153
5068.359375	-102.686142
5069.335938	-103.182610
5070.312500	-102.879875
5071.289062	-102.684639
5072.265625	-102.840668
5073.242188	-103.059952
5074.218750	-103.011902
5075.195312	-103.106667
5076.171875	-102.861832
5077.148438	-103.023315
5078.125000	-102.902603
5079.101562	-102.832428
5080.078125	-102.864609
5081.054688	-102.782951
5082.031250	-102.944534
5083.007812	-103.091606
5083.984375	-102.640839
5084.960938	-102.844154
5085.937500	-102.940155
5086.914062	-102.840797
5087.890625	-102.552292
5088.867188	-103.064560
5089.843750	-102.929222
5090.820312	-103.274086
5091.796875	-103.472916
5092.773438	-103.205376
5093.750000	-103.225578
5094.726562	-102.713593
5095.703125	-102.472893
5096.679688	-103.112770
5097.656250	-103.076385
5098.632812	-102.899742
5099.609375	-102.853653
5100.585938	-103.101967
5101.562500	-103.198982
5102.539062	-102.892906
5103.515625	-102.816437
5104.492188	-102.953346
5105.468750	-103.089073
5106.445312	-103.062347
5107.421875	-103.076981
5108.398438	-103.268005
5109.375000	-103.298553
5110.351562	-102.892387
5111.328125	-102.770798
5112.304688	-102.900032
5113.281250	-102.986671
5114.257812	-103.127945
5115.234375	-102.724403
5116.210938	-103.071899
5117.187500	-103.096115
5118.164062	-102.938728
5119.140625	-103.130112
5120.117188	-103.094597
5121.093750	-103.243111
5122.070312	-102.975677
5123.046875	-103.151939
5124.023438	-102.658409
5125.000000	-103.094658
5125.976562	-103.167702
5126.953125	-103.259254
5127.929688	-103.019485
5128.906250	-103.560989
5129.882812	-103.015427
5130.859375	-103.165787
5131.835938	-103.219841
5132.812500	-103.099358
5133.789062	-103.012001
5134.765625	-103.241241
5135.742188	-103.370811
5136.718750	-103.148987
5137.695312	-103.277809
5138.671875	-103.135277
5139.648438	-103.109993
5140.625000	-103.121208
5141.601562	-103.079170
5142.578125	-103.063637
5143.554688	-103.186920
5144.531250	-103.190376
5145.507812	-103.609764
5146.484375	-103.437561
5147.460938	-103.188141
5148.437500	-103.297142
5149.414062	-103.266083
5150.390625	-103.375366
5151.367188	-103.240944
5152.343750	-103.400879
5153.320312	-103.016823
5154.296875	-103.113251
5155.273438	-103.020805
5156.250000	-103.282829
5157.226562	-103.522018
5158.203125	-103.183647
5159.179688	-103.317200
5160.156250	-102.997070
5161.132812	-103.337631
5162.109375	-103.155319
5163.085938	-103.332466
5164.062500	-103.463593
5165.039062	-103.398842
5166.015625	-103.294136
5166.992188	-103.125298
5167.968750	-102.927361
5168.945312	-103.242943
5169.921875	-103.392189
5170.898438	-103.339378
5171.875000	-103.287590
5172.851562	-102.952812
5173.828125	-103.123146
5174.804688	-103.496811
5175.781250	-103.283096
5176.757812	-103.136467
5177.734375	-103.083931
5178.710938	-103.348839
5179.687500	-103.297852
5180.664062	-103.529305
5181.640625	-103.094124
5182.617188	-103.164223
5183.593750	-103.316017
5184.570312	-103.349716
5185.546875	-103.414246
5186.523438	-103.430023
5187.500000	-103.316650
5188.476562	-103.201881
5189.453125	-103.296234
5190.429688	-103.358070
5191.406250	-103.335373
5192.382812	-103.282402
5193.359375	-103.239990
5194.335938	-103.455849
5195.312500	-103.203293
5196.289062	-103.242165
5197.265625	-103.276840
5198.242188	-103.381790
5199.218750	-103.485748
5200.195312	-103.530952
5201.171875	-103.282326
5202.148438	-103.347275
5203.125000	-103.253632
5204.101562	-103.315819
5205.078125	-103.032471
5206.054688	-103.455429
5207.031250	-103.353912
5208.007812	-103.114540
5208.984375	-103.224289
5209.960938	-103.430977
5210.937500	-102.903236
5211.914062	-103.002396
5212.890625	-103.330162
5213.867188	-102.892342
5214.843750	-103.458969
5215.820312	-103.104248
5216.796875	-103.196404
5217.773438	-103.204590
5218.750000	-103.386063
5219.726562	-102.892036
5220.703125	-103.309372
5221.679688	-103.451836
5222.656250	-103.046837
5223.632812	-103.368095
5224.609375	-103.432442
5225.585938	-102.898552
5226.562500	-103.257896
5227.539062	-103.196587
5228.515625	-103.568222
5229.492188	-103.371422
5230.468750	-103.444351
5231.445312	-103.422165
5232.421875	-103.392570
5233.398438	-103.077415
5234.375000	-103.447060
5235.351562	-103.269234
5236.328125	-103.345474
5237.304688	-103.040855
5238.281250	-103.310722
5239.257812	-103.094002
5240.234375	-103.410072
5241.210938	-102.998901
5242.187500	-103.635185
5243.164062	-103.204887
5244.140625	-103.418427
5245.117188	-103.214966
5246.093750	-103.164619
5247.070312	-103.396118
5248.046875	-103.440010
5249.023438	-103.281181
5250.000000	-103.494957
5250.976562	-103.254723
5251.953125	-103.202431
5252.929688	-103.222900
5253.906250	-103.389893
5254.882812	-103.193069
5255.859375	-103.152527
5256.835938	-103.138992
5257.812500	-103.237480
5258.789062	-103.257500
5259.765625	-103.468857
5260.742188	-103.222618
5261.718750	-103.250282
5262.695312	-103.419853
5263.671875	-103.505112
5264.648438	-103.337326
5265.625000	-103.233452
5266.601562	-103.487305
5267.578125	-103.381714
5268.554688	-103.204384
5269.531250	-103.495659
5270.507812	-103.207962
5271.484375	-103.537521
5272.460938	-104.071854
5273.437500	-103.575058
5274.414062	-103.139992
5275.390625	-103.763855
5276.367188	-103.658409
5277.343750	-103.530396
5278.320312	-103.232010
5279.296875	-103.505684
5280.273438	-103.503410
5281.250000	-103.114250
5282.226562	-103.497635
5283.203125	-103.353195
5284.179688	-103.401413
5285.156250	-103.382874
5286.132812	-103.588287
5287.109375	-103.647964
5288.085938	-103.552567
5289.062500	-103.489326
5290.039062	-103.596352
5291.015625	-103.756401
5291.992188	-103.251572
5292.968750	-103.145409
5293.945312	-103.499451
5294.921875	-103.400299
5295.898438	-103.576836
5296.875000	-103.502708
5297.851562	-103.523865
5298.828125	-103.466515
5299.804688	-103.430763
5300.781250	-103.350388
5301.757812	-103.790428
5302.734375	-103.233177
5303.710938	-103.333397
5304.687500	-103.319748
5305.664062	-103.396103
5306.640625	-103.435417
5307.617188	-103.910049
5308.593750	-103.531555
5309.570312	-103.649002
5310.546875	-103.519783
5311.523438	-103.664955
5312.500000	-103.442345
5313.476562	-103.782249
5314.453125	-103.249176
5315.429688	-103.237938
5316.406250	-103.461700
5317.382812	-103.576797
5318.359375	-103.535904
5319.335938	-103.545273
5320.312500	-103.626328
5321.289062	-103.414192
5322.265625	-103.710388
5323.242188	-103.716400
5324.218750	-103.499123
5325.195312	-103.766426
5326.171875	-103.639709
5327.148438	-103.760277
5328.125000	-103.377129
5329.101562	-103.279541
5330.078125	-103.311905
5331.054688	-103.554291
5332.031250	-103.516655
5333.007812	-103.656174
5333.984375	-103.466736
5334.960938	-103.466812
5335.937500	-103.572800
5336.914062	-103.785095
5337.890625	-103.707008
5338.867188	-103.745369
5339.843750	-103.815102
5340.820312	-103.414680
5341.796875	-103.766159
5342.773438	-103.524155
5343.750000	-103.503784
5344.726562	-103.854301
5345.703125	-103.735291
5346.679688	-103.498116
5347.656250	-103.791283
5348.632812	-103.698479
5349.609375	-103.595459
5350.585938	-103.679787
5351.562500	-103.531868
5352.539062	-103.651390
5353.515625	-103.650719
5354.492188	-103.574051
5355.468750	-103.691650
5356.445312	-103.762039
5357.421875	-103.839859
5358.398438	-103.944939
5359.375000	-103.791298
5360.351562	-103.349335
5361.328125	-103.535942
5362.304688	-103.716347
5363.281250	-103.637047
5364.257812	-103.645180
5365.234375	-103.692566
5366.210938	-103.658966
5367.187500	-103.928185
5368.164062	-103.671478
5369.140625	-103.703072
5370.117188	-103.604774
5371.093750	-103.760468
5372.070312	-103.782471
5373.046875	-103.659767
5374.023438	-103.569664
5375.000000	-103.831886
5375.976562	-103.411835
5376.953125	-103.735092
5377.929688	-103.744362
5378.906250	-103.670258
5379.882812	-103.765732
5380.859375	-103.510864
5381.835938	-103.703934
5382.812500	-103.717918
5383.789062	-103.646080
5384.765625	-103.795517
5385.742188	-103.743942
5386.718750	-103.681030
5387.695312	-103.887543
5388.671875	-103.609581
5389.648438	-103.493439
5390.625000	-103.686943
5391.601562	-103.751579
5392.578125	-104.087029
5393.554688	-103.929314
5394.531250	-103.646683
5395.507812	-103.878944
5396.484375	-103.741096
5397.460938	-103.750374
5398.437500	-103.799156
5399.414062	-103.799484
5400.390625	-103.912506
5401.367188	-103.858307
5402.343750	-103.647118
5403.320312	-103.875885
5404.296875	-103.631989
5405.273438	-104.183449
5406.250000	-103.695244
5407.226562	-103.760620
5408.203125	-103.691788
5409.179688	-103.803970
5410.156250	-103.747025
5411.132812	-103.786156
5412.109375	-103.956978
5413.085938	-103.643494
5414.062500	-103.695610
5415.039062	-103.721970
5416.015625	-103.833992
5416.992188	-103.587479
5417.968750	-103.986458
5418.945312	-103.947723
5419.921875	-103.678795
5420.898438	-104.080093
5421.875000	-103.835869
5422.851562	-103.939880
5423.828125	-103.643715
5424.804688	-103.890656
5425.781250	-103.699738
5426.757812	-103.912315
5427.734375	-104.123375
5428.710938	-103.638245
5429.687500	-104.001038
5430.664062	-103.515968
5431.640625	-103.934708
5432.617188	-103.702957
5433.593750	-103.866425
5434.570312	-103.637878
5435.546875	-103.653145
5436.523438	-103.742729
5437.500000	-103.852943
5438.476562	-103.692589
5439.453125	-103.717407
5440.429688	-103.722176
5441.406250	-103.752235
5442.382812	-103.686119
5443.359375	-103.726799
5444.335938	-103.718643
5445.312500	-103.758202
5446.289062	-103.456879
5447.265625	-103.780449
5448.242188	-103.587433
5449.218750	-103.755379
5450.195312	-103.914467
5451.171875	-103.812706
5452.148438	-103.681068
5453.125000	-104.108467
5454.101562	-103.578850
5455.078125	-104.203667
5456.054688	-104.316505
5457.031250	-103.748085
5458.007812	-103.889915
5458.984375	-103.743385
5459.960938	-104.053947
5460.937500	-103.835770
5461.914062	-103.742485
5462.890625	-103.722565
5463.867188	-103.778870
5464.843750	-104.076462
5465.820312	-103.967804
5466.796875	-104.132652
5467.773438	-103.602280
5468.750000	-103.786057
5469.726562	-104.050789
5470.703125	-103.754112
5471.679688	-103.840263
5472.656250	-103.810440
5473.632812	-103.982491
5474.609375	-103.980873
5475.585938	-103.995766
5476.562500	-103.889267
5477.539062	-103.690582
5478.515625	-103.633614
5479.492188	-103.980888
5480.468750	-103.917282
5481.445312	-103.891914
5482.421875	-104.292320
5483.398438	-104.001389
5484.375000	-103.893517
5485.351562	-104.010010
5486.328125	-104.182587
5487.304688	-103.718513
5488.281250	-103.959869
5489.257812	-103.958733
5490.234375	-104.002632
5491.210938	-103.792313
5492.187500	-103.591362
5493.164062	-104.057343
5494.140625	-103.850220
5495.117188	-104.006035
5496.093750	-103.843178
5497.070312	-103.716599
5498.046875	-104.067528
5499.023438	-104.164833
5500.000000	-104.236160
5500.976562	-103.737526
5501.953125	-103.722015
5502.929688	-103.803825
5503.906250	-103.754028
5504.882812	-103.877380
5505.859375	-104.114822
5506.835938	-103.848297
5507.812500	-103.850624
5508.789062	-103.743553
5509.765625	-103.865921
5510.742188	-103.843391
5511.718750	-103.916489
5512.695312	-104.090652
5513.671875	-103.806641
5514.648438	-104.186630
5515.625000	-104.086884
5516.601562	-103.995461
5517.578125	-103.933975
5518.554688	-103.849236
5519.531250	-104.145836
5520.507812	-104.027969
5521.484375	-103.680267
5522.460938	-104.052650
5523.437500	-103.796150
5524.414062	-103.772072
5525.390625	-104.075317
5526.367188	-103.955536
5527.343750	-103.729248
5528.320312	-104.066696
5529.296875	-103.921143
5530.273438	-103.845535
5531.250000	-103.844505
5532.226562	-104.082581
5533.203125	-104.046547
5534.179688	-103.783714
5535.156250	-103.782539
5536.132812	-103.871231
5537.109375	-104.022873
5538.085938	-104.228447
5539.062500	-104.072479
5540.039062	-103.849518
5541.015625	-103.787308
5541.992188	-103.809280
5542.968750	-103.897079
5543.945312	-103.942917
5544.921875	-104.124924
5545.898438	-103.950356
5546.875000	-104.061745
5547.851562	-103.978233
5548.828125	-104.159302
5549.804688	-103.729355
5550.781250	-103.667870
5551.757812	-103.935448
5552.734375	-103.736115
5553.710938	-103.900276
5554.687500	-103.942810
5555.664062	-104.120018
5556.640625	-103.897873
5557.617188	-103.885529
5558.593750	-103.938812
5559.570312	-103.809982
5560.546875	-103.948212
5561.523438	-104.011200
5562.500000	-104.110062
5563.476562	-103.904022
5564.453125	-103.708763
5565.429688	-104.166985
5566.406250	-103.924232
5567.382812	-103.933304
5568.359375	-104.106308
5569.335938	-104.102478
5570.312500	-104.020447
5571.289062	-104.050621
5572.265625	-103.855400
5573.242188	-104.176468
5574.218750	-104.081100
5575.195312	-103.993881
5576.171875	-104.107681
5577.148438	-104.041428
5578.125000	-103.996025
5579.101562	-104.205971
5580.078125	-103.843880
5581.054688	-104.076347
5582.031250	-104.233116
5583.007812	-104.112267
5583.984375	-103.796844
5584.960938	-104.187408
5585.937500	-104.027512
5586.914062	-104.055672
5587.890625	-104.187370
5588.867188	-104.095947
5589.843750	-103.961983
5590.820312	-103.805069
5591.796875	-104.199821
5592.773438	-103.733025
5593.750000	-104.223335
5594.726562	-104.113846
5595.703125	-104.022659
5596.679688	-104.078789
5597.656250	-103.961021
5598.632812	-104.015839
5599.609375	-103.913185
5600.585938	-104.137886
5601.562500	-103.961624
5602.539062	-104.049271
5603.515625	-104.140625
5604.492188	-104.261391
5605.468750	-104.190170
5606.445312	-103.868919
5607.421875	-103.735939
5608.398438	-104.001419
5609.375000	-103.743355
5610.351562	-104.383865
5611.328125	-104.179848
5612.304688	-104.183540
5613.281250	-104.048073
5614.257812	-104.343124
5615.234375	-103.972626
5616.210938	-103.695816
5617.187500	-104.377617
5618.164062	-104.089546
5619.140625	-104.173645
5620.117188	-103.949356
5621.093750	-104.035172
5622.070312	-104.057137
5623.046875	-103.722946
5624.023438	-104.003021
5625.000000	-104.130318
5625.976562	-104.268356
5626.953125	-104.129044
5627.929688	-103.660072
5628.906250	-104.175438
5629.882812	-103.972443
5630.859375	-103.814034
5631.835938	-103.913170
5632.812500	-104.238747
5633.789062	-103.994469
5634.765625	-103.967743
5635.742188	-103.795258
5636.718750	-104.072578
5637.695312	-104.063278
5638.671875	-104.084526
5639.648438	-103.890190
5640.625000	-104.578308
5641.601562	-103.943779
5642.578125	-103.939407
5643.554688	-103.801216
5644.531250	-104.001900
5645.507812	-104.198021
5646.484375	-104.074295
5647.460938	-104.168274
5648.437500	-104.096184
5649.414062	-103.974571
5650.390625	-103.727577
5651.367188	-104.172134
5652.343750	-104.224510
5653.320312	-104.173653
5654.296875	-103.820854
5655.273438	-104.343887
5656.250000	-104.235153
5657.226562	-104.258270
5658.203125	-104.073090
5659.179688	-104.087135
5660.156250	-104.012886
5661.132812	-103.735970
5662.109375	-104.030846
5663.085938	-104.011002
5664.062500	-103.960419
5665.039062	-104.108635
5666.015625	-103.977898
5666.992188	-104.350052
5667.968750	-104.212784
5668.945312	-104.045929
5669.921875	-103.955055
5670.898438	-103.928528
5671.875000	-104.380882
5672.851562	-104.242035
5673.828125	-103.952606
5674.804688	-104.356483
5675.781250	-104.016365
5676.757812	-104.197144
5677.734375	-103.756218
5678.710938	-104.276169
5679.687500	-104.323479
5680.664062	-104.354965
5681.640625	-104.141693
5682.617188	-104.270470
5683.593750	-104.124405
5684.570312	-104.029991
5685.546875	-104.186188
5686.523438	-104.214966
5687.500000	-104.004715
5688.476562	-104.004562
5689.453125	-104.273514
5690.429688	-104.356377
5691.406250	-104.359367
5692.382812	-104.207375
5693.359375	-104.019569
5694.335938	-104.092041
5695.312500	-104.192017
5696.289062	-104.208862
5697.265625	-103.874947
5698.242188	-104.289391
5699.218750	-104.145363
5700.195312	-104.302864
5701.171875	-104.398651
5702.148438	-104.370750
5703.125000	-103.982925
5704.101562	-104.029099
5705.078125	-104.073380
5706.054688	-104.331078
5707.031250	-103.968781
5708.007812	-104.152313
5708.984375	-104.663124
5709.960938	-104.155235
5710.937500	-104.019707
5711.914062	-104.308350
5712.890625	-104.276871
5713.867188	-104.311569
5714.843750	-104.044472
5715.820312	-103.961174
5716.796875	-104.125977
5717.773438	-103.953941
5718.750000	-104.412399
5719.726562	-104.353439
5720.703125	-104.310738
5721.679688	-104.021622
5722.656250	-104.127449
5723.632812	-104.448685
5724.609375	-104.420952
5725.585938	-104.151810
5726.562500	-104.287521
5727.539062	-104.411270
5728.515625	-104.311760
5729.492188	-104.237511
5730.468750	-104.318970
5731.445312	-103.850548
5732.421875	-104.319450
5733.398438	-104.188049
5734.375000	-104.017120
5735.351562	-104.044281
5736.328125	-104.314911
5737.304688	-104.412323
5738.281250	-104.211166
5739.257812	-103.985352
5740.234375	-104.377335
5741.210938	-104.117294
5742.187500	-104.619881
5743.164062	-104.316994
5744.140625	-104.134674
5745.117188	-104.200768
5746.093750	-104.217606
5747.070312	-104.447296
5748.046875	-104.373184
5749.023438	-104.361671
5750.000000	-104.217102
5750.976562	-104.294395
5751.953125	-104.098938
5752.929688	-104.130791
5753.906250	-104.294930
5754.882812	-104.380066
5755.859375	-104.325676
5756.835938	-104.342186
5757.812500	-104.279823
5758.789062	-104.152641
5759.765625	-104.392876
5760.742188	-104.241966
5761.718750	-104.387482
5762.695312	-104.342545
5763.671875	-104.397758
5764.648438	-104.454178
5765.625000	-104.168861
5766.601562	-104.360085
5767.578125	-104.030754
5768.554688	-104.267555
5769.531250	-104.185982
5770.507812	-104.153252
5771.484375	-103.947311
5772.460938	-104.268150
5773.437500	-104.294174
5774.414062	-104.454582
5775.390625	-104.582542
5776.367188	-104.433411
5777.343750	-103.974213
5778.320312	-104.398491
5779.296875	-104.400734
5780.273438	-104.308434
5781.250000	-104.255363
5782.226562	-104.166969
5783.203125	-104.230949
5784.179688	-104.190376
5785.156250	-104.339813
5786.132812	-104.130608
5787.109375	-104.199287
5788.085938	-104.425407
5789.062500	-104.212975
5790.039062	-104.259132
5791.015625	-104.331764
5791.992188	-104.205078
5792.968750	-104.355019
5793.945312	-104.004654
5794.921875	-104.327316
5795.898438	-104.388496
5796.875000	-104.160782
5797.851562	-104.308220
5798.828125	-104.541885
5799.804688	-104.231453
5800.781250	-104.302879
5801.757812	-104.181221
5802.734375	-104.270813
5803.710938	-104.508682
5804.687500	-104.437981
5805.664062	-104.361427
5806.640625	-104.312035
5807.617188	-104.629440
5808.593750	-104.121254
5809.570312	-104.199829
5810.546875	-104.391861
5811.523438	-104.133858
5812.500000	-104.298378
5813.476562	-104.618706
5814.453125	-104.209763
5815.429688	-104.244957
5816.406250	-104.522026
5817.382812	-104.164536
5818.359375	-104.625267
5819.335938	-104.064018
5820.312500	-104.582748
5821.289062	-104.102753
5822.265625	-104.526237
5823.242188	-104.289398
5824.218750	-104.462387
5825.195312	-104.281807
5826.171875	-104.301155
5827.148438	-104.333405
5828.125000	-103.985970
5829.101562	-104.488701
5830.078125	-104.290596
5831.054688	-104.237999
5832.031250	-104.623558
5833.007812	-104.512451
5833.984375	-104.531105
5834.960938	-104.404495
5835.937500	-104.753052
5836.914062	-104.349075
5837.890625	-104.510986
5838.867188	-104.707199
5839.843750	-104.393059
5840.820312	-104.549301
5841.796875	-104.513748
5842.773438	-104.444374
5843.750000	-104.486389
5844.726562	-104.187813
5845.703125	-104.028801
5846.679688	-104.332161
5847.656250	-104.160622
5848.632812	-104.027359
5849.609375	-104.476326
5850.585938	-104.326225
5851.562500	-104.687546
5852.539062	-104.261559
5853.515625	-104.375244
5854.492188	-104.444633
5855.468750	-104.469360
5856.445312	-104.551979
5857.421875	-104.440392
5858.398438	-104.100540
5859.375000	-104.457809
5860.351562	-104.487267
5861.328125	-104.668671
5862.304688	-104.522148
5863.281250	-104.760010
5864.257812	-104.474243
5865.234375	-104.276260
5866.210938	-104.610153
5867.187500	-104.264656
5868.164062	-104.432152
5869.140625	-104.473122
5870.117188	-104.717422
5871.093750	-104.512749
5872.070312	-104.344360
5873.046875	-104.451492
5874.023438	-104.395790
5875.000000	-104.478210
5875.976562	-104.317734
5876.953125	-104.712532
5877.929688	-104.559570
5878.906250	-104.635536
5879.882812	-104.523308
5880.859375	-104.428902
5881.835938	-104.503975
5882.812500	-104.495178
5883.789062	-104.434143
5884.765625	-104.326660
5885.742188	-104.366440
5886.718750	-104.447273
5887.695312	-104.435478
5888.671875	-104.619476
5889.648438	-104.468979
5890.625000	-104.524940
5891.601562	-104.444977
5892.578125	-104.752090
5893.554688	-104.402252
5894.531250	-104.682915
5895.507812	-104.411644
5896.484375	-104.552864
5897.460938	-104.705284
5898.437500	-104.233994
5899.414062	-104.665619
5900.390625	-104.656143
5901.367188	-104.464195
5902.343750	-104.445526
5903.320312	-104.233963
5904.296875	-104.435783
5905.273438	-104.455521
5906.250000	-104.433121
5907.226562	-104.838684
5908.203125	-104.744644
5909.179688	-104.804703
5910.156250	-104.521797
5911.132812	-104.543167
5912.109375	-104.690895
5913.085938	-104.421852
5914.062500	-104.748184
5915.039062	-104.540123
5916.015625	-104.599693
5916.992188	-104.524223
5917.968750	-104.975533
5918.945312	-104.498123
5919.921875	-104.645615
5920.898438	-104.479607
5921.875000	-104.505280
5922.851562	-104.685371
5923.828125	-104.437378
5924.804688	-104.410439
5925.781250	-104.552727
5926.757812	-104.511810
5927.734375	-104.485039
5928.710938	-104.530388
5929.687500	-104.601303
5930.664062	-104.455406
5931.640625	-104.498268
5932.617188	-104.558067
5933.593750	-104.365448
5934.570312	-104.365784
5935.546875	-104.591904
5936.523438	-104.626968
5937.500000	-104.559357
5938.476562	-104.574821
5939.453125	-104.422913
5940.429688	-104.482155
5941.406250	-104.412376
5942.382812	-104.430916
5943.359375	-104.857224
5944.335938	-104.643127
5945.312500	-104.284355
5946.289062	-104.429962
5947.265625	-104.598526
5948.242188	-104.545967
5949.218750	-104.519676
5950.195312	-104.643883
5951.171875	-104.761940
5952.148438	-104.454872
5953.125000	-104.383720
5954.101562	-104.441872
5955.078125	-104.705742
5956.054688	-104.608009
5957.031250	-104.605949
5958.007812	-104.677475
5958.984375	-104.530533
5959.960938	-104.470299
5960.937500	-104.709076
5961.914062	-104.533485
5962.890625	-104.423836
5963.867188	-104.601379
5964.843750	-104.405602
5965.820312	-104.961197
5966.796875	-104.619705
5967.773438	-104.629929
5968.750000	-104.749939
5969.726562	-104.668968
5970.703125	-104.873810
5971.679688	-104.737625
5972.656250	-104.576958
5973.632812	-104.319206
5974.609375	-104.575745
5975.585938	-104.570122
5976.562500	-104.559776
5977.539062	-104.421410
5978.515625	-104.698738
5979.492188	-104.408997
5980.468750	-104.650429
5981.445312	-104.496315
5982.421875	-104.641052
5983.398438	-104.732018
5984.375000	-104.912102
5985.351562	-104.328117
5986.328125	-104.432800
5987.304688	-104.547585
5988.281250	-104.503204
5989.257812	-104.729805
5990.234375	-104.594910
5991.210938	-104.955109
5992.187500	-104.608330
5993.164062	-104.704788
5994.140625	-104.670746
5995.117188	-104.616226
5996.093750	-104.589066
5997.070312	-104.701424
5998.046875	-104.665352
5999.023438	-104.794205
6000.000000	-104.540619
6000.976562	-105.043465
6001.953125	-104.589882
6002.929688	-104.720261
6003.906250	-104.979485
6004.882812	-104.649696
6005.859375	-104.839127
6006.835938	-104.738655
6007.812500	-104.604645
6008.789062	-104.642090
6009.765625	-104.498703
6010.742188	-104.713875
6011.718750	-104.639938
6012.695312	-104.335365
6013.671875	-104.786087
6014.648438	-104.487282
6015.625000	-104.946869
6016.601562	-104.997711
6017.578125	-104.346390
6018.554688	-104.607231
6019.531250	-104.603294
6020.507812	-104.392036
6021.484375	-104.765541
6022.460938	-104.500549
6023.437500	-104.761703
6024.414062	-104.935066
6025.390625	-104.702507
6026.367188	-104.715370
6027.343750	-104.507591
6028.320312	-104.638924
6029.296875	-104.985695
6030.273438	-104.748802
6031.250000	-104.502304
6032.226562	-104.686218
6033.203125	-104.896889
6034.179688	-104.711456
6035.156250	-104.489899
6036.132812	-104.464859
6037.109375	-104.786270
6038.085938	-104.598969
6039.062500	-104.620247
6040.039062	-104.597176
6041.015625	-104.896393
6041.992188	-104.908722
6042.968750	-104.591728
6043.945312	-104.738548
6044.921875	-104.530922
6045.898438	-104.787704
6046.875000	-104.248238
6047.851562	-104.908638
6048.828125	-104.690247
6049.804688	-104.563072
6050.781250	-104.749557
6051.757812	-104.515022
6052.734375	-104.822868
6053.710938	-104.838722
6054.687500	-104.621658
6055.664062	-104.861565
6056.640625	-105.065323
6057.617188	-104.764839
6058.593750	-104.623947
6059.570312	-104.564972
6060.546875	-104.528664
6061.523438	-104.753365
6062.500000	-104.528236
6063.476562	-104.513405
6064.453125	-104.596512
6065.429688	-104.760818
6066.406250	-105.097572
6067.382812	-104.913109
6068.359375	-104.707794
6069.335938	-104.832970
6070.312500	-104.455521
6071.289062	-104.635948
6072.265625	-104.543983
6073.242188	-104.564056
6074.218750	-104.810738
6075.195312	-104.585175
6076.171875	-104.825035
6077.148438	-104.807465
6078.125000	-104.894623
6079.101562	-104.699745
6080.078125	-104.474472
6081.054688	-104.727699
6082.031250	-104.452507
6083.007812	-104.920380
6083.984375	-104.896355
6084.960938	-104.754051
6085.937500	-104.400955
6086.914062	-104.648376
6087.890625	-104.734253
6088.867188	-104.806198
6089.843750	-104.511597
6090.820312	-104.470032
6091.796875	-104.587234
6092.773438	-104.753525
6093.750000	-104.827812
6094.726562	-104.946625
6095.703125	-104.588799
6096.679688	-104.782173
6097.656250	-104.634193
6098.632812	-104.733170
6099.609375	-105.056068
6100.585938	-104.815636
6101.562500	-104.449913
6102.539062	-104.698219
6103.515625	-104.763191
6104.492188	-104.858505
6105.468750	-104.677261
6106.445312	-104.697937
6107.421875	-104.914139
6108.398438	-104.715912
6109.375000	-104.851059
6110.351562	-104.691780
6111.328125	-104.684555
6112.304688	-104.964424
6113.281250	-104.813423
6114.257812	-104.621941
6115.234375	-104.826515
6116.210938	-104.808990
6117.187500	-104.776245
6118.164062	-104.666252
6119.140625	-104.788307
6120.117188	-104.984344
6121.093750	-104.663498
6122.070312	-104.759850
6123.046875	-105.252327
6124.023438	-104.681564
6125.000000	-104.803383
6125.976562	-104.775291
6126.953125	-104.709602
6127.929688	-104.645226
6128.906250	-104.624680
6129.882812	-104.493141
6130.859375	-104.924019
6131.835938	-104.991119
6132.812500	-104.991699
6133.789062	-104.837952
6134.765625	-104.457878
6135.742188	-104.713722
6136.718750	-104.928452
6137.695312	-104.727074
6138.671875	-104.919342
6139.648438	-104.567451
6140.625000	-104.841942
6141.601562	-104.717331
6142.578125	-104.897758
6143.554688	-104.717308
6144.531250	-104.685188
6145.507812	-105.072403
6146.484375	-104.696198
6147.460938	-104.687935
6148.437500	-104.518478
6149.414062	-104.980316
6150.390625	-104.886841
6151.367188	-104.951874
6152.343750	-104.456230
6153.320312	-104.926575
6154.296875	-104.554420
6155.273438	-104.688454
6156.250000	-104.572685
6157.226562	-104.800194
6158.203125	-104.637383
6159.179688	-104.682663
6160.156250	-104.472267
6161.132812	-104.617165
6162.109375	-104.517578
6163.085938	-104.739128
6164.062500	-104.713539
6165.039062	-104.469749
6166.015625	-104.971123
6166.992188	-105.248199
6167.968750	-104.987785
6168.945312	-104.653328
6169.921875	-104.756111
6170.898438	-104.963417
6171.875000	-104.823517
6172.851562	-104.881645
6173.828125	-104.485023
6174.804688	-104.927979
6175.781250	-105.029655
6176.757812	-104.733032
6177.734375	-104.695801
6178.710938	-104.518257
6179.687500	-104.914345
6180.664062	-105.072205
6181.640625	-104.599739
6182.617188	-104.848030
6183.593750	-104.712090
6184.570312	-105.128967
6185.546875	-104.811310
6186.523438	-104.644485
6187.500000	-104.547493
6188.476562	-104.783508
6189.453125	-104.681435
6190.429688	-104.925201
6191.406250	-104.954918
6192.382812	-104.897705
6193.359375	-104.744598
6194.335938	-105.187790
6195.312500	-104.739883
6196.289062	-104.537598
6197.265625	-105.248283
6198.242188	-104.823654
6199.218750	-104.957504
6200.195312	-104.688187
6201.171875	-105.065315
6202.148438	-104.752754
6203.125000	-105.109673
6204.101562	-104.774139
6205.078125	-104.557602
6206.054688	-105.042931
6207.031250	-105.053101
6208.007812	-104.712524
6208.984375	-105.028503
6209.960938	-104.932129
6210.937500	-104.786682
6211.914062	-104.810661
6212.890625	-104.998520
6213.867188	-105.043282
6214.843750	-105.014549
6215.820312	-104.745720
6216.796875	-105.100739
6217.773438	-104.723846
6218.750000	-104.597420
6219.726562	-104.893311
6220.703125	-104.761543
6221.679688	-104.619591
6222.656250	-104.961258
6223.632812	-104.905846
6224.609375	-104.575813
6225.585938	-104.558136
6226.562500	-104.836815
6227.539062	-105.065536
6228.515625	-105.174850
6229.492188	-105.086578
6230.468750	-104.770020
6231.445312	-104.849892
6232.421875	-104.680290
6233.398438	-104.754967
6234.375000	-104.809059
6235.351562	-104.766426
6236.328125	-104.937073
6237.304688	-105.216118
6238.281250	-104.910645
6239.257812	-104.767647
6240.234375	-105.024368
6241.210938	-104.845863
6242.187500	-104.823898
6243.164062	-105.254013
6244.140625	-104.933983
6245.117188	-105.082756
6246.093750	-104.964127
6247.070312	-104.628799
6248.046875	-104.725441
6249.023438	-104.525078
6250.000000	-104.788712
6250.976562	-104.665962
6251.953125	-104.672478
6252.929688	-104.920670
6253.906250	-105.059746
6254.882812	-104.973572
6255.859375	-104.905533
6256.835938	-104.843613
6257.812500	-104.941284
6258.789062	-104.849609
6259.765625	-104.748596
6260.742188	-104.924583
6261.718750	-104.886551
6262.695312	-105.312553
6263.671875	-105.031837
6264.648438	-104.906929
6265.625000	-104.589531
6266.601562	-104.964722
6267.578125	-105.073654
6268.554688	-104.917900
6269.531250	-104.955002
6270.507812	-104.864853
6271.484375	-104.839638
6272.460938	-104.971596
6273.437500	-105.166908
6274.414062	-104.840576
6275.390625	-104.738403
6276.367188	-104.893723
6277.343750	-105.103348
6278.320312	-105.106560
6279.296875	-104.707207
6280.273438	-104.572502
6281.250000	-104.860481
6282.226562	-104.868347
6283.203125	-105.120087
6284.179688	-104.743088
6285.156250	-104.698166
6286.132812	-105.107285
6287.109375	-104.742790
6288.085938	-104.867325
6289.062500	-104.683586
6290.039062	-104.869545
6291.015625	-104.633949
6291.992188	-104.816017
6292.968750	-104.840096
6293.945312	-104.729309
6294.921875	-104.841019
6295.898438	-104.825340
6296.875000	-105.052834
6297.851562	-104.707466
6298.828125	-104.771805
6299.804688	-105.187393
6300.781250	-105.132225
6301.757812	-104.531120
6302.734375	-104.813286
6303.710938	-104.988869
6304.687500	-105.157066
6305.664062	-104.848671
6306.640625	-104.639244
6307.617188	-104.713028
6308.593750	-104.789711
6309.570312	-104.983559
6310.546875	-105.069870
6311.523438	-105.163651
6312.500000	-104.843895
6313.476562	-105.011658
6314.453125	-105.105431
6315.429688	-104.993652
6316.406250	-104.717819
6317.382812	-104.890488
6318.359375	-105.321053
6319.335938	-105.239815
6320.312500	-104.897438
6321.289062	-105.154457
6322.265625	-104.820808
6323.242188	-104.863609
6324.218750	-104.783951
6325.195312	-104.600021
6326.171875	-104.926529
6327.148438	-104.810265
6328.125000	-104.846733
6329.101562	-105.018509
6330.078125	-105.208282
6331.054688	-104.851997
6332.031250	-104.744926
6333.007812	-105.150284
6333.984375	-105.062866
6334.960938	-104.867325
6335.937500	-105.054665
6336.914062	-105.147331
6337.890625	-105.052727
6338.867188	-105.028595
6339.843750	-105.045074
6340.820312	-104.912613
6341.796875	-104.944313
6342.773438	-105.030090
6343.750000	-104.616249
6344.726562	-104.974213
6345.703125	-104.926025
6346.679688	-105.004234
6347.656250	-104.927574
6348.632812	-104.961388
6349.609375	-105.204842
6350.585938	-104.749260
6351.562500	-105.168648
6352.539062	-104.781372
6353.515625	-105.066483
6354.492188	-104.871201
6355.468750	-105.135513
6356.445312	-104.900627
6357.421875	-104.886169
6358.398438	-104.973648
6359.375000	-105.040932
6360.351562	-104.689629
6361.328125	-105.247726
6362.304688	-105.038506
6363.281250	-105.033005
6364.257812	-104.894516
6365.234375	-105.092903
6366.210938	-105.153046
6367.187500	-105.402191
6368.164062	-105.151642
6369.140625	-104.981522
6370.117188	-105.056000
6371.093750	-105.051651
6372.070312	-105.080193
6373.046875	-105.081131
6374.023438	-104.964142
6375.000000	-104.914696
6375.976562	-105.270233
6376.953125	-105.061714
6377.929688	-104.771286
6378.906250	-105.220612
6379.882812	-104.901917
6380.859375	-105.302307
6381.835938	-105.107758
6382.812500	-105.376419
6383.789062	-104.854294
6384.765625	-104.909203
6385.742188	-105.237450
6386.718750	-105.077431
6387.695312	-105.017944
6388.671875	-105.346794
6389.648438	-105.180573
6390.625000	-104.869347
6391.601562	-104.930847
6392.578125	-105.268097
6393.554688	-104.743248
6394.531250	-105.304314
6395.507812	-105.200607
6396.484375	-105.163033
6397.460938	-105.010826
6398.437500	-104.963577
6399.414062	-104.838699
6400.390625	-105.033157
6401.367188	-105.394173
6402.343750	-105.202538
6403.320312	-105.076874
6404.296875	-105.160706
6405.273438	-105.077065
6406.250000	-104.958351
6407.226562	-104.929245
6408.203125	-105.030617
6409.179688	-105.066071
6410.156250	-105.094048
6411.132812	-104.953941
6412.109375	-104.803871
6413.085938	-105.150063
6414.062500	-104.991486
6415.039062	-104.975800
6416.015625	-104.960014
6416.992188	-105.055656
6417.968750	-105.196442
6418.945312	-104.850700
6419.921875	-104.901459
6420.898438	-105.030632
6421.875000	-104.980804
6422.851562	-105.200157
6423.828125	-105.027527
6424.804688	-105.190247
6425.781250	-104.980698
6426.757812	-105.396286
6427.734375	-105.012283
6428.710938	-104.995842
6429.687500	-105.369133
6430.664062	-105.305573
6431.640625	-105.046890
6432.617188	-105.141853
6433.593750	-105.081612
6434.570312	-105.169762
6435.546875	-104.873306
6436.523438	-105.041512
6437.500000	-104.985138
6438.476562	-105.167435
6439.453125	-105.015739
6440.429688	-105.105507
6441.406250	-105.116562
6442.382812	-104.991959
6443.359375	-105.096214
6444.335938	-105.072578
6445.312500	-105.096992
6446.289062	-105.117516
6447.265625	-105.048164
6448.242188	-105.075966
6449.218750	-105.218735
6450.195312	-105.298935
6451.171875	-105.236824
6452.148438	-105.281410
6453.125000	-105.311859
6454.101562	-105.158600
6455.078125	-105.283615
6456.054688	-104.874199
6457.031250	-105.057846
6458.007812	-104.999054
6458.984375	-105.247093
6459.960938	-104.976379
6460.937500	-105.164810
6461.914062	-105.053741
6462.890625	-104.995079
6463.867188	-105.177002
6464.843750	-105.077347
6465.820312	-105.318146
6466.796875	-105.416260
6467.773438	-105.185120
6468.750000	-104.925804
6469.726562	-105.187553
6470.703125	-105.159111
6471.679688	-105.105980
6472.656250	-104.839073
6473.632812	-105.152901
6474.609375	-104.808052
6475.585938	-105.053368
6476.562500	-104.853668
6477.539062	-104.956123
6478.515625	-105.215096
6479.492188	-105.003487
6480.468750	-105.210129
6481.445312	-105.157974
6482.421875	-105.315941
6483.398438	-105.316391
6484.375000	-105.523277
6485.351562	-105.009201
6486.328125	-104.651917
6487.304688	-105.126427
6488.281250	-105.085281
6489.257812	-105.088455
6490.234375	-105.326714
6491.210938	-105.195702
6492.187500	-105.475471
6493.164062	-105.453880
6494.140625	-105.217438
6495.117188	-105.369537
6496.093750	-105.164543
6497.070312	-105.017960
6498.046875	-104.841110
6499.023438	-105.179741
6500.000000	-105.091476
6500.976562	-105.110573
6501.953125	-105.128334
6502.929688	-105.093048
6503.906250	-104.956062
6504.882812	-105.419868
6505.859375	-105.220253
6506.835938	-105.410530
6507.812500	-105.238350
6508.789062	-105.131744
6509.765625	-105.139847
6510.742188	-105.157524
6511.718750	-105.289490
6512.695312	-105.160072
6513.671875	-105.254707
6514.648438	-105.202240
6515.625000	-105.130730
6516.601562	-105.133369
6517.578125	-105.188576
6518.554688	-105.080284
6519.531250	-105.329079
6520.507812	-105.201271
6521.484375	-104.790268
6522.460938	-105.165237
6523.437500	-105.035843
6524.414062	-105.328506
6525.390625	-105.005119
6526.367188	-104.987946
6527.343750	-105.108406
6528.320312	-105.194763
6529.296875	-105.268829
6530.273438	-104.892433
6531.250000	-105.099586
6532.226562	-105.222061
6533.203125	-105.140259
6534.179688	-105.272697
6535.156250	-105.110298
6536.132812	-105.086670
6537.109375	-105.039665
6538.085938	-105.211807
6539.062500	-105.121391
6540.039062	-105.130875
6541.015625	-105.175163
6541.992188	-105.129547
6542.968750	-105.399910
6543.945312	-105.281090
6544.921875	-105.127930
6545.898438	-105.342751
6546.875000	-105.049995
6547.851562	-104.826996
6548.828125	-105.040955
6549.804688	-105.204849
6550.781250	-105.491219
6551.757812	-105.078751
6552.734375	-105.025536
6553.710938	-105.236145
6554.687500	-105.327286
6555.664062	-105.160400
6556.640625	-105.225502
6557.617188	-105.231758
6558.593750	-105.013718
6559.570312	-105.130585
6560.546875	-105.516632
6561.523438	-105.296585
6562.500000	-105.184914
6563.476562	-105.133492
6564.453125	-105.140335
6565.429688	-105.102684
6566.406250	-105.175407
6567.382812	-105.316338
6568.359375	-105.230713
6569.335938	-105.321060
6570.312500	-105.121750
6571.289062	-105.246948
6572.265625	-105.376717
6573.242188	-105.257744
6574.218750	-105.284622
6575.195312	-105.307175
6576.171875	-105.361343
6577.148438	-105.142426
6578.125000	-105.165573
6579.101562	-105.101013
6580.078125	-105.102524
6581.054688	-105.526016
6582.031250	-105.139671
6583.007812	-105.212059
6583.984375	-105.177032
6584.960938	-105.077202
6585.937500	-105.455711
6586.914062	-105.220154
6587.890625	-105.237206
6588.867188	-104.935013
6589.843750	-104.894707
6590.820312	-105.338997
6591.796875	-104.886894
6592.773438	-104.967140
6593.750000	-105.253975
6594.726562	-105.495193
6595.703125	-105.310020
6596.679688	-105.294930
6597.656250	-105.059059
6598.632812	-105.222145
6599.609375	-105.431656
6600.585938	-105.392303
6601.562500	-105.237114
6602.539062	-105.143280
6603.515625	-105.299576
6604.492188	-105.245438
6605.468750	-105.574867
6606.445312	-105.544724
6607.421875	-105.227272
6608.398438	-105.222878
6609.375000	-105.390266
6610.351562	-105.231041
6611.328125	-105.144539
6612.304688	-105.434624
6613.281250	-105.114166
6614.257812	-105.143631
6615.234375	-105.366386
6616.210938	-105.310593
6617.187500	-105.087929
6618.164062	-105.337570
6619.140625	-105.542091
6620.117188	-104.929451
6621.093750	-105.245705
6622.070312	-105.217735
6623.046875	-105.479324
6624.023438	-105.088966
6625.000000	-105.283058
6625.976562	-105.447357
6626.953125	-105.250381
6627.929688	-105.116142
6628.906250	-105.485344
6629.882812	-105.273720
6630.859375	-105.189941
6631.835938	-105.290619
6632.812500	-105.148422
6633.789062	-105.148064
6634.765625	-105.072563
6635.742188	-105.055016
6636.718750	-105.283897
6637.695312	-105.145264
6638.671875	-105.354172
6639.648438	-105.236511
6640.625000	-105.342491
6641.601562	-105.482796
6642.578125	-105.072121
6643.554688	-105.532753
6644.531250	-105.167793
6645.507812	-105.293411
6646.484375	-105.207436
6647.460938	-105.092987
6648.437500	-105.387627
6649.414062	-105.218330
6650.390625	-105.270905
6651.367188	-105.056252
6652.343750	-105.201874
6653.320312	-105.196541
6654.296875	-105.444046
6655.273438	-105.356934
6656.250000	-105.043411
6657.226562	-105.174454
6658.203125	-105.191048
6659.179688	-105.188606
6660.156250	-105.421288
6661.132812	-105.192986
6662.109375	-105.085838
6663.085938	-105.386925
6664.062500	-105.047035
6665.039062	-105.185448
6666.015625	-104.996872
6666.992188	-105.214569
6667.968750	-105.160416
6668.945312	-105.453568
6669.921875	-105.454300
6670.898438	-105.002419
6671.875000	-105.230522
6672.851562	-105.354126
6673.828125	-105.088036
6674.804688	-105.009651
6675.781250	-105.512161
6676.757812	-104.907188
6677.734375	-105.513039
6678.710938	-105.149345
6679.687500	-105.298744
6680.664062	-105.160072
6681.640625	-105.056778
6682.617188	-105.602989
6683.593750	-105.311241
6684.570312	-105.082596
6685.546875	-105.302956
6686.523438	-105.071449
6687.500000	-105.174683
6688.476562	-105.555626
6689.453125	-105.283417
6690.429688	-105.075020
6691.406250	-105.189095
6692.382812	-105.743271
6693.359375	-105.187088
6694.335938	-105.210609
6695.312500	-105.481522
6696.289062	-105.274506
6697.265625	-105.381615
6698.242188	-105.218712
6699.218750	-105.481903
6700.195312	-105.458267
6701.171875	-105.606140
6702.148438	-105.307503
6703.125000	-105.029099
6704.101562	-105.143204
6705.078125	-105.394821
6706.054688	-105.737228
6707.031250	-105.209999
6708.007812	-105.203140
6708.984375	-105.169655
6709.960938	-105.202713
6710.937500	-105.518486
6711.914062	-105.214920
6712.890625	-105.103104
6713.867188	-105.410393
6714.843750	-105.485947
6715.820312	-105.085831
6716.796875	-105.452148
6717.773438	-105.519104
6718.750000	-105.362000
6719.726562	-105.151794
6720.703125	-105.351082
6721.679688	-105.378212
6722.656250	-105.312042
6723.632812	-105.074112
6724.609375	-105.373726
6725.585938	-105.123245
6726.562500	-105.572891
6727.539062	-105.430458
6728.515625	-105.539963
6729.492188	-105.449516
6730.468750	-105.338280
6731.445312	-105.198326
6732.421875	-105.420807
6733.398438	-105.311813
6734.375000	-105.369720
6735.351562	-105.095818
6736.328125	-105.516403
6737.304688	-105.475800
6738.281250	-105.105499
6739.257812	-105.216606
6740.234375	-105.475906
6741.210938	-105.070244
6742.187500	-105.180870
6743.164062	-105.544785
6744.140625	-105.168900
6745.117188	-105.203186
6746.093750	-105.181923
6747.070312	-105.112297
6748.046875	-105.235458
6749.023438	-105.320908
6750.000000	-105.524536
6750.976562	-105.337059
6751.953125	-104.974365
6752.929688	-105.206116
6753.906250	-104.980759
6754.882812	-105.449463
6755.859375	-105.416969
6756.835938	-105.314171
6757.812500	-105.306244
6758.789062	-105.200912
6759.765625	-105.466972
6760.742188	-105.074356
6761.718750	-105.375221
6762.695312	-105.590012
6763.671875	-105.156425
6764.648438	-105.009048
6765.625000	-105.606789
6766.601562	-105.491547
6767.578125	-105.237000
6768.554688	-105.346062
6769.531250	-105.418373
6770.507812	-105.324112
6771.484375	-105.488098
6772.460938	-105.311287
6773.437500	-105.292526
6774.414062	-105.413406
6775.390625	-105.305618
6776.367188	-105.536743
6777.343750	-105.667313
6778.320312	-105.283791
6779.296875	-105.422348
6780.273438	-105.151863
6781.250000	-105.223244
6782.226562	-105.450096
6783.203125	-105.407799
6784.179688	-105.350250
6785.156250	-105.406944
6786.132812	-105.136223
6787.109375	-105.534760
6788.085938	-105.439011
6789.062500	-105.012802
6790.039062	-105.542877
6791.015625	-105.412903
6791.992188	-105.418770
6792.968750	-105.432510
6793.945312	-105.421135
6794.921875	-105.530121
6795.898438	-105.143921
6796.875000	-105.355072
6797.851562	-105.548248
6798.828125	-105.352524
6799.804688	-105.200264
6800.781250	-105.291725
6801.757812	-105.460579
6802.734375	-105.014244
6803.710938	-105.652664
6804.687500	-105.240685
6805.664062	-105.426369
6806.640625	-105.275879
6807.617188	-105.323212
6808.593750	-105.469521
6809.570312	-105.268120
6810.546875	-105.435387
6811.523438	-105.630493
6812.500000	-105.325684
6813.476562	-105.448769
6814.453125	-105.526634
6815.429688	-105.366516
6816.406250	-105.413132
6817.382812	-105.561577
6818.359375	-105.807747
6819.335938	-105.284279
6820.312500	-105.566345
6821.289062	-105.538559
6822.265625	-105.238747
6823.242188	-105.353188
6824.218750	-105.538040
6825.195312	-105.409645
6826.171875	-105.726006
6827.148438	-105.270950
6828.125000	-105.417519
6829.101562	-105.430336
6830.078125	-105.340836
6831.054688	-105.274918
6832.031250	-105.529755
6833.007812	-105.483253
6833.984375	-105.489792
6834.960938	-105.317566
6835.937500	-105.520111
6836.914062	-105.190834
6837.890625	-105.512207
6838.867188	-105.291588
6839.843750	-105.400467
6840.820312	-105.317093
6841.796875	-105.359375
6842.773438	-105.357048
6843.750000	-105.259102
6844.726562	-105.426247
6845.703125	-105.390915
6846.679688	-105.442551
6847.656250	-105.496834
6848.632812	-105.592705
6849.609375	-105.413429
6850.585938	-105.349022
6851.562500	-105.406837
6852.539062	-105.277901
6853.515625	-105.678055
6854.492188	-105.460686
6855.468750	-105.422241
6856.445312	-105.520882
6857.421875	-105.786674
6858.398438	-105.719093
6859.375000	-105.474075
6860.351562	-105.405991
6861.328125	-105.773262
6862.304688	-105.570404
6863.281250	-105.404030
6864.257812	-105.322243
6865.234375	-105.313965
6866.210938	-105.610878
6867.187500	-105.437172
6868.164062	-105.410065
6869.140625	-105.325989
6870.117188	-105.530151
6871.093750	-105.487511
6872.070312	-105.930267
6873.046875	-105.609283
6874.023438	-105.500183
6875.000000	-105.221405
6875.976562	-105.484276
6876.953125	-105.388680
6877.929688	-105.321785
6878.906250	-105.599457
6879.882812	-105.488586
6880.859375	-105.168427
6881.835938	-105.429115
6882.812500	-105.681572
6883.789062	-105.449203
6884.765625	-105.380692
6885.742188	-105.385742
6886.718750	-105.630379
6887.695312	-105.453056
6888.671875	-105.627831
6889.648438	-105.072746
6890.625000	-105.498360
6891.601562	-105.639488
6892.578125	-105.569870
6893.554688	-105.563461
6894.531250	-105.464645
6895.507812	-105.310417
6896.484375	-105.377480
6897.460938	-105.558800
6898.437500	-105.802361
6899.414062	-105.276703
6900.390625	-105.320221
6901.367188	-105.684235
6902.343750	-105.637589
6903.320312	-105.612411
6904.296875	-105.562256
6905.273438	-105.363182
6906.250000	-105.760773
6907.226562	-105.626465
6908.203125	-105.413658
6909.179688	-105.574615
6910.156250	-105.592201
6911.132812	-105.658020
6912.109375	-105.475052
6913.085938	-105.601486
6914.062500	-105.334686
6915.039062	-105.550758
6916.015625	-105.724167
6916.992188	-105.478668
6917.968750	-105.702316
6918.945312	-105.685303
6919.921875	-105.795204
6920.898438	-105.582474
6921.875000	-105.476128
6922.851562	-105.666458
6923.828125	-105.451378
6924.804688	-105.464500
6925.781250	-105.537964
6926.757812	-105.836655
6927.734375	-105.560211
6928.710938	-105.273026
6929.687500	-105.648804
6930.664062	-105.474197
6931.640625	-105.433548
6932.617188	-105.650002
6933.593750	-105.455727
6934.570312	-105.624855
6935.546875	-105.801147
6936.523438	-105.548576
6937.500000	-105.596031
6938.476562	-105.735268
6939.453125	-105.386856
6940.429688	-105.543976
6941.406250	-105.460960
6942.382812	-105.833206
6943.359375	-105.971107
6944.335938	-105.851547
6945.312500	-105.442863
6946.289062	-105.681091
6947.265625	-105.496346
6948.242188	-105.655647
6949.218750	-105.542862
6950.195312	-105.778572
6951.171875	-105.921005
6952.148438	-105.533852
6953.125000	-105.692184
6954.101562	-105.556900
6955.078125	-105.536636
6956.054688	-105.595810
6957.031250	-105.817230
6958.007812	-105.750305
6958.984375	-105.525848
6959.960938	-105.791763
6960.937500	-105.543953
6961.914062	-105.603142
6962.890625	-105.541580
6963.867188	-105.590446
6964.843750	-105.778381
6965.820312	-105.679588
6966.796875	-105.579185
6967.773438	-105.663467
6968.750000	-105.678909
6969.726562	-105.796890
6970.703125	-105.913734
6971.679688	-105.713249
6972.656250	-105.662415
6973.632812	-106.063789
6974.609375	-105.557060
6975.585938	-105.432983
6976.562500	-105.702377
6977.539062	-105.885391
6978.515625	-105.693481
6979.492188	-105.742706
6980.468750	-105.699242
6981.445312	-105.731171
6982.421875	-105.812859
6983.398438	-105.602562
6984.375000	-105.784996
6985.351562	-105.783592
6986.328125	-105.633171
6987.304688	-105.632050
6988.281250	-105.673798
6989.257812	-105.578232
6990.234375	-105.472923
6991.210938	-105.402649
6992.187500	-105.655113
6993.164062	-105.836121
6994.140625	-105.589661
6995.117188	-105.850876
6996.093750	-105.551964
6997.070312	-105.733757
6998.046875	-105.828415
6999.023438	-105.587601
7000.000000	-105.914886
7000.976562	-105.714424
7001.953125	-105.733612
7002.929688	-105.657555
7003.906250	-105.514877
7004.882812	-105.796921
7005.859375	-105.328239
7006.835938	-105.646355
7007.812500	-105.875053
7008.789062	-105.809669
7009.765625	-105.737663
7010.742188	-105.545555
7011.718750	-105.639984
7012.695312	-105.421959
7013.671875	-105.686531
7014.648438	-105.656616
7015.625000	-105.610924
7016.601562	-105.808075
7017.578125	-105.620216
7018.554688	-105.504669
7019.531250	-105.507156
7020.507812	-105.745064
7021.484375	-105.594688
7022.460938	-105.594368
7023.437500	-105.615273
7024.414062	-105.598824
7025.390625	-105.774330
7026.367188	-105.625893
7027.343750	-105.693176
7028.320312	-105.713531
7029.296875	-105.641708
7030.273438	-105.641251
7031.250000	-105.764893
7032.226562	-105.574570
7033.203125	-105.849518
7034.179688	-105.761856
7035.156250	-105.814354
7036.132812	-105.732391
7037.109375	-105.683525
7038.085938	-106.016815
7039.062500	-105.847786
7040.039062	-105.753700
7041.015625	-105.655785
7041.992188	-105.653229
7042.968750	-105.778824
7043.945312	-105.929764
7044.921875	-105.841225
7045.898438	-105.699944
7046.875000	-105.682686
7047.851562	-105.702286
7048.828125	-105.735451
7049.804688	-105.738312
7050.781250	-105.622932
7051.757812	-105.867340
7052.734375	-105.922966
7053.710938	-105.761276
7054.687500	-105.918053
7055.664062	-105.494820
7056.640625	-105.849045
7057.617188	-105.721527
7058.593750	-105.764626
7059.570312	-105.842026
7060.546875	-105.834885
7061.523438	-106.006187
7062.500000	-105.940094
7063.476562	-105.920097
7064.453125	-105.546196
7065.429688	-105.928795
7066.406250	-105.713470
7067.382812	-105.930099
7068.359375	-105.724892
7069.335938	-105.605171
7070.312500	-105.511894
7071.289062	-105.790710
7072.265625	-105.766838
7073.242188	-105.746475
7074.218750	-106.029388
7075.195312	-106.068794
7076.171875	-105.823616
7077.148438	-105.836723
7078.125000	-106.088875
7079.101562	-105.846886
7080.078125	-105.793739
7081.054688	-105.930328
7082.031250	-105.851234
7083.007812	-106.009338
7083.984375	-105.704498
7084.960938	-105.872292
7085.937500	-105.810593
7086.914062	-105.850204
7087.890625	-105.817116
7088.867188	-105.734726
7089.843750	-105.854980
7090.820312	-105.926224
7091.796875	-105.917122
7092.773438	-105.803001
7093.750000	-105.649132
7094.726562	-106.261627
7095.703125	-105.829330
7096.679688	-105.973801
7097.656250	-105.888138
7098.632812	-105.787613
7099.609375	-105.943802
7100.585938	-105.845726
7101.562500	-105.928490
7102.539062	-105.821991
7103.515625	-105.696259
7104.492188	-105.695824
7105.468750	-105.805252
7106.445312	-105.857445
7107.421875	-106.008568
7108.398438	-105.973228
7109.375000	-105.713966
7110.351562	-105.698814
7111.328125	-105.974632
7112.304688	-105.893806
7113.281250	-105.809059
7114.257812	-105.787605
7115.234375	-105.678894
7116.210938	-105.734100
7117.187500	-105.622978
7118.164062	-106.018547
7119.140625	-105.876419
7120.117188	-105.946938
7121.093750	-105.961037
7122.070312	-105.806450
7123.046875	-105.897354
7124.023438	-105.843575
7125.000000	-105.969994
7125.976562	-106.059685
7126.953125	-105.828087
7127.929688	-105.736298
7128.906250	-105.899628
7129.882812	-106.002441
7130.859375	-105.874825
7131.835938	-105.953850
7132.812500	-105.850731
7133.789062	-105.841354
7134.765625	-105.919144
7135.742188	-106.000053
7136.718750	-105.991013
7137.695312	-105.904404
7138.671875	-105.964249
7139.648438	-106.010902
7140.625000	-105.915108
7141.601562	-105.856949
7142.578125	-105.818092
7143.554688	-105.858948
7144.531250	-105.941582
7145.507812	-105.877396
7146.484375	-106.018585
7147.460938	-105.977043
7148.437500	-105.987015
7149.414062	-106.105377
7150.390625	-105.914856
7151.367188	-105.905556
7152.343750	-106.063622
7153.320312	-105.851608
7154.296875	-105.892662
7155.273438	-105.899284
7156.250000	-105.936516
7157.226562	-105.934982
7158.203125	-105.758453
7159.179688	-105.790024
7160.156250	-105.857697
7161.132812	-105.909294
7162.109375	-106.263397
7163.085938	-105.982521
7164.062500	-106.025940
7165.039062	-106.035477
7166.015625	-106.020988
7166.992188	-106.140121
7167.968750	-105.999954
7168.945312	-106.001999
7169.921875	-106.054657
7170.898438	-106.054413
7171.875000	-106.054253
7172.851562	-105.964165
7173.828125	-106.019516
7174.804688	-105.931641
7175.781250	-105.973083
7176.757812	-106.002991
7177.734375	-106.051224
7178.710938	-105.793198
7179.687500	-106.083656
7180.664062	-105.995255
7181.640625	-105.950699
7182.617188	-105.991539
7183.593750	-106.048752
7184.570312	-106.157295
7185.546875	-106.119339
7186.523438	-105.858192
7187.500000	-105.948120
7188.476562	-105.957764
7189.453125	-105.913963
7190.429688	-106.124481
7191.406250	-106.047974
7192.382812	-106.028862
7193.359375	-105.940056
7194.335938	-106.095886
7195.312500	-105.942116
7196.289062	-105.929008
7197.265625	-106.058907
7198.242188	-105.871384
7199.218750	-106.029228
7200.195312	-105.964935
7201.171875	-106.155708
7202.148438	-106.070702
7203.125000	-105.946709
7204.101562	-105.940819
7205.078125	-105.972336
7206.054688	-106.127274
7207.031250	-105.886047
7208.007812	-105.978767
7208.984375	-106.003258
7209.960938	-106.076721
7210.937500	-105.938492
7211.914062	-106.276161
7212.890625	-106.022575
7213.867188	-105.957634
7214.843750	-106.055916
7215.820312	-105.983620
7216.796875	-105.980797
7217.773438	-106.052086
7218.750000	-105.879753
7219.726562	-106.120262
7220.703125	-105.934090
7221.679688	-105.981110
7222.656250	-106.066666
7223.632812	-106.080208
7224.609375	-106.028229
7225.585938	-105.955826
7226.562500	-106.037575
7227.539062	-106.101669
7228.515625	-106.056107
7229.492188	-106.010201
7230.468750	-106.097290
7231.445312	-106.055435
7232.421875	-106.063049
7233.398438	-106.209503
7234.375000	-106.030769
7235.351562	-106.024857
7236.328125	-106.178513
7237.304688	-106.105179
7238.281250	-106.093338
7239.257812	-106.136269
7240.234375	-106.015495
7241.210938	-106.143318
7242.187500	-106.196709
7243.164062	-106.022560
7244.140625	-106.037033
7245.117188	-106.164673
7246.093750	-106.018295
7247.070312	-106.243233
7248.046875	-106.062714
7249.023438	-106.160240
7250.000000	-106.179840
7250.976562	-106.063972
7251.953125	-105.984344
7252.929688	-106.080231
7253.906250	-106.019966
7254.882812	-106.174362
7255.859375	-106.211266
7256.835938	-106.099777
7257.812500	-106.242241
7258.789062	-106.103889
7259.765625	-106.116997
7260.742188	-106.047028
7261.718750	-106.038620
7262.695312	-106.089645
7263.671875	-105.940445
7264.648438	-106.029732
7265.625000	-106.116066
7266.601562	-106.002151
7267.578125	-105.986732
7268.554688	-106.024567
7269.531250	-105.973831
7270.507812	-106.142189
7271.484375	-106.066193
7272.460938	-106.091438
7273.437500	-106.077095
7274.414062	-106.057877
7275.390625	-106.135063
7276.367188	-106.063896
7277.343750	-106.047447
7278.320312	-106.193535
7279.296875	-106.227303
7280.273438	-106.074196
7281.250000	-106.157318
7282.226562	-106.175995
7283.203125	-106.151016
7284.179688	-106.048737
7285.156250	-106.068550
7286.132812	-106.070000
7287.109375	-106.265350
7288.085938	-106.115891
7289.062500	-106.034813
7290.039062	-106.028160
7291.015625	-106.174477
7291.992188	-106.193970
7292.968750	-106.239372
7293.945312	-106.154556
7294.921875	-106.127213
7295.898438	-106.255653
7296.875000	-106.169121
7297.851562	-106.131798
7298.828125	-106.225990
7299.804688	-106.096855
7300.781250	-106.218666
7301.757812	-106.113945
7302.734375	-106.209732
7303.710938	-106.133469
7304.687500	-106.188110
7305.664062	-106.129044
7306.640625	-106.090103
7307.617188	-106.185242
7308.593750	-106.161514
7309.570312	-106.247307
7310.546875	-106.039085
7311.523438	-106.135033
7312.500000	-106.118950
7313.476562	-106.215004
7314.453125	-106.164619
7315.429688	-106.255310
7316.406250	-106.178413
7317.382812	-106.116066
7318.359375	-106.142273
7319.335938	-106.171356
7320.312500	-106.183067
7321.289062	-106.201920
7322.265625	-106.098351
7323.242188	-106.081200
7324.218750	-106.101242
7325.195312	-106.244308
7326.171875	-106.211754
7327.148438	-106.249397
7328.125000	-106.138496
7329.101562	-106.280716
7330.078125	-106.141357
7331.054688	-106.191231
7332.031250	-106.270485
7333.007812	-106.190704
7333.984375	-106.222404
7334.960938	-106.178154
7335.937500	-106.130135
7336.914062	-106.199028
7337.890625	-106.178795
7338.867188	-106.184250
7339.843750	-106.222244
7340.820312	-106.230766
7341.796875	-106.272690
7342.773438	-106.198532
7343.750000	-106.168877
7344.726562	-106.101723
7345.703125	-106.194588
7346.679688	-106.205307
7347.656250	-106.217751
7348.632812	-106.248154
7349.609375	-106.135994
7350.585938	-106.177734
7351.562500	-106.195595
7352.539062	-106.264015
7353.515625	-106.115013
7354.492188	-106.144241
7355.468750	-106.169937
7356.445312	-106.193901
7357.421875	-106.227806
7358.398438	-106.210823
7359.375000	-106.183784
7360.351562	-106.233086
7361.328125	-106.197853
7362.304688	-106.168694
7363.281250	-106.268311
7364.257812	-106.193405
7365.234375	-106.217087
7366.210938	-106.153877
7367.187500	-106.248695
7368.164062	-106.226715
7369.140625	-106.189186
7370.117188	-106.228226
7371.093750	-106.216286
7372.070312	-106.196335
7373.046875	-106.199104
7374.023438	-106.212135
7375.000000	-106.219688
7375.976562	-106.239891
7376.953125	-106.165710
7377.929688	-106.232498
7378.906250	-106.184052
7379.882812	-106.238297
7380.859375	-106.218086
7381.835938	-106.210854
7382.812500	-106.266174
7383.789062	-106.245926
7384.765625	-106.207161
7385.742188	-106.175072
7386.718750	-106.259422
7387.695312	-106.269310
7388.671875	-106.278458
7389.648438	-106.174957
7390.625000	-106.295639
7391.601562	-106.260773
7392.578125	-106.227882
7393.554688	-106.165550
7394.531250	-106.196564
7395.507812	-106.227158
7396.484375	-106.209198
7397.460938	-106.212700
7398.437500	-106.210884
7399.414062	-106.273697
7400.390625	-106.244743
7401.367188	-106.223167
7402.343750	-106.222092
7403.320312	-106.212074
7404.296875	-106.215439
7405.273438	-106.187210
7406.250000	-106.264488
7407.226562	-106.238716
7408.203125	-106.216881
7409.179688	-106.216827
7410.156250	-106.224327
7411.132812	-106.250565
7412.109375	-106.287994
7413.085938	-106.260612
7414.062500	-106.191216
7415.039062	-106.239700
7416.015625	-106.255074
7416.992188	-106.266167
7417.968750	-106.275421
7418.945312	-106.249428
7419.921875	-106.264847
7420.898438	-106.218872
7421.875000	-106.214279
7422.851562	-106.248039
7423.828125	-106.232208
7424.804688	-106.263802
7425.781250	-106.232368
7426.757812	-106.259216
7427.734375	-106.270157
7428.710938	-106.207115
7429.687500	-106.302162
7430.664062	-106.247093
7431.640625	-106.237907
7432.617188	-106.240578
7433.593750	-106.266823
7434.570312	-106.253006
7435.546875	-106.210930
7436.523438	-106.262329
7437.500000	-106.283691
7438.476562	-106.252838
7439.453125	-106.199837
7440.429688	-106.192940
7441.406250	-106.250916
7442.382812	-106.268295
7443.359375	-106.213531
7444.335938	-106.233307
7445.312500	-106.299057
7446.289062	-106.221054
7447.265625	-106.238411
7448.242188	-106.237793
7449.218750	-106.254028
7450.195312	-106.253342
7451.171875	-106.268852
7452.148438	-106.273346
7453.125000	-106.264130
7454.101562	-106.262115
7455.078125	-106.251526
7456.054688	-106.258675
7457.031250	-106.268913
7458.007812	-106.241463
7458.984375	-106.327072
7459.960938	-106.254089
7460.937500	-106.282578
7461.914062	-106.240982
7462.890625	-106.232193
7463.867188	-106.255577
7464.843750	-106.287415
7465.820312	-106.289131
7466.796875	-106.250748
7467.773438	-106.288551
7468.750000	-106.278603
7469.726562	-106.266815
7470.703125	-106.266357
7471.679688	-106.266930
7472.656250	-106.256157
7473.632812	-106.253181
7474.609375	-106.292023
7475.585938	-106.253387
7476.562500	-106.286606
7477.539062	-106.253700
7478.515625	-106.245865
7479.492188	-106.280159
7480.468750	-106.281624
7481.445312	-106.237785
7482.421875	-106.288757
7483.398438	-106.254204
7484.375000	-106.244598
7485.351562	-106.245888
7486.328125	-106.263336
7487.304688	-106.284012
7488.281250	-106.284050
7489.257812	-106.268867
7490.234375	-106.272606
7491.210938	-106.292381
7492.187500	-106.257240
7493.164062	-106.276031
7494.140625	-106.248680
7495.117188	-106.275200
7496.093750	-106.263878
7497.070312	-106.289162
7498.046875	-106.275581
7499.023438	-106.269806
7500.000000	-106.259033
7500.976562	-106.266022
7501.953125	-106.267067
7502.929688	-106.255501
7503.906250	-106.271271
7504.882812	-106.288872
7505.859375	-106.281319
7506.835938	-106.255951
7507.812500	-106.270035
7508.789062	-106.260742
7509.765625	-106.296738
7510.742188	-106.276672
7511.718750	-106.271019
7512.695312	-106.273270
7513.671875	-106.272888
7514.648438	-106.263206
7515.625000	-106.282143
7516.601562	-106.284271
7517.578125	-106.270576
7518.554688	-106.266563
7519.531250	-106.296394
7520.507812	-106.285957
7521.484375	-106.284775
7522.460938	-106.289612
7523.437500	-106.291069
7524.414062	-106.265121
7525.390625	-106.315742
7526.367188	-106.284180
7527.343750	-106.286804
7528.320312	-106.295151
7529.296875	-106.267662
7530.273438	-106.288383
7531.250000	-106.294319
7532.226562	-106.292984
7533.203125	-106.277374
7534.179688	-106.281044
7535.156250	-106.284515
7536.132812	-106.281937
7537.109375	-106.281464
7538.085938	-106.272812
7539.062500	-106.290863
7540.039062	-106.288651
7541.015625	-106.280739
7541.992188	-106.289062
7542.968750	-106.272057
7543.945312	-106.289185
7544.921875	-106.288101
7545.898438	-106.293686
7546.875000	-106.287704
7547.851562	-106.278069
7548.828125	-106.281433
7549.804688	-106.286751
7550.781250	-106.285423
7551.757812	-106.282532
7552.734375	-106.286301
7553.710938	-106.286827
7554.687500	-106.292236
7555.664062	-106.299995
7556.640625	-106.281960
7557.617188	-106.288361
7558.593750	-106.275261
7559.570312	-106.287010
7560.546875	-106.292557
7561.523438	-106.290138
7562.500000	-106.292084
7563.476562	-106.287483
7564.453125	-106.294060
7565.429688	-106.288559
7566.406250	-106.299454
7567.382812	-106.287979
7568.359375	-106.302132
7569.335938	-106.283676
7570.312500	-106.296585
7571.289062	-106.293121
7572.265625	-106.292931
7573.242188	-106.292564
7574.218750	-106.296555
7575.195312	-106.300079
7576.171875	-106.290260
7577.148438	-106.300079
7578.125000	-106.301765
7579.101562	-106.304619
7580.078125	-106.298241
7581.054688	-106.286102
7582.031250	-106.294609
7583.007812	-106.303146
7583.984375	-106.292824
7584.960938	-106.302017
7585.937500	-106.287422
7586.914062	-106.295158
7587.890625	-106.296501
7588.867188	-106.297989
7589.843750	-106.297836
7590.820312	-106.297333
7591.796875	-106.292580
7592.773438	-106.294067
7593.750000	-106.293152
7594.726562	-106.295151
7595.703125	-106.299973
7596.679688	-106.299217
7597.656250	-106.303406
7598.632812	-106.299789
7599.609375	-106.304520
7600.585938	-106.301552
7601.562500	-106.306541
7602.539062	-106.295860
7603.515625	-106.302734
7604.492188	-106.305046
7605.468750	-106.292053
7606.445312	-106.300484
7607.421875	-106.300194
7608.398438	-106.296524
7609.375000	-106.302162
7610.351562	-106.302383
7611.328125	-106.303917
7612.304688	-106.306679
7613.281250	-106.301613
7614.257812	-106.305115
7615.234375	-106.308006
7616.210938	-106.300659
7617.187500	-106.302460
7618.164062	-106.302376
7619.140625	-106.313034
7620.117188	-106.305214
7621.093750	-106.308754
7622.070312	-106.307526
7623.046875	-106.306000
7624.023438	-106.306496
7625.000000	-106.303825
7625.976562	-106.309013
7626.953125	-106.304283
7627.929688	-106.308426
7628.906250	-106.310982
7629.882812	-106.308205
7630.859375	-106.307648
7631.835938	-106.307091
7632.812500	-106.305511
7633.789062	-106.315834
7634.765625	-106.308121
7635.742188	-106.306770
7636.718750	-106.309448
7637.695312	-106.307060
7638.671875	-106.304543
7639.648438	-106.312454
7640.625000	-106.307526
7641.601562	-106.308960
7642.578125	-106.310539
7643.554688	-106.306351
7644.531250	-106.315536
7645.507812	-106.308777
7646.484375	-106.310616
7647.460938	-106.314331
7648.437500	-106.312103
7649.414062	-106.311722
7650.390625	-106.310028
7651.367188	-106.312737
7652.343750	-106.311035
7653.320312	-106.310287
7654.296875	-106.311615
7655.273438	-106.310036
7656.250000	-106.309952
7657.226562	-106.313896
7658.203125	-106.310699
7659.179688	-106.314720
7660.156250	-106.312569
7661.132812	-106.312111
7662.109375	-106.312592
7663.085938	-106.314293
7664.062500	-106.317261
7665.039062	-106.318130
7666.015625	-106.315811
7666.992188	-106.314499
7667.968750	-106.316841
7668.945312	-106.315384
7669.921875	-106.316986
7670.898438	-106.318527
7671.875000	-106.316055
7672.851562	-106.318077
7673.828125	-106.315659
7674.804688	-106.315567
7675.781250	-106.316444
7676.757812	-106.316704
7677.734375	-106.316154
7678.710938	-106.315369
7679.687500	-106.317993
7680.664062	-106.316315
7681.640625	-106.316681
7682.617188	-106.318146
7683.593750	-106.316002
7684.570312	-106.318260
7685.546875	-106.318344
7686.523438	-106.319221
7687.500000	-106.319160
7688.476562	-106.318077
7689.453125	-106.318314
7690.429688	-106.318626
7691.406250	-106.318619
7692.382812	-106.317513
7693.359375	-106.319984
7694.335938	-106.319962
7695.312500	-106.318047
7696.289062	-106.320259
7697.265625	-106.317772
7698.242188	-106.320496
7699.218750	-106.319122
7700.195312	-106.320267
7701.171875	-106.320602
7702.148438	-106.319939
7703.125000	-106.322456
7704.101562	-106.322525
7705.078125	-106.320694
7706.054688	-106.324196
7707.031250	-106.320549
7708.007812	-106.323303
7708.984375	-106.320511
7709.960938	-106.322685
7710.937500	-106.322449
7711.914062	-106.320808
7712.890625	-106.323257
7713.867188	-106.322105
7714.843750	-106.323288
7715.820312	-106.323463
7716.796875	-106.322563
7717.773438	-106.322540
7718.750000	-106.323288
7719.726562	-106.323280
7720.703125	-106.324043
7721.679688	-106.324959
7722.656250	-106.324760
7723.632812	-106.325073
7724.609375	-106.325172
7725.585938	-106.324829
7726.562500	-106.325348
7727.539062	-106.325562
7728.515625	-106.325249
7729.492188	-106.326859
7730.468750	-106.327583
7731.445312	-106.326447
7732.421875	-106.326401
7733.398438	-106.326340
7734.375000	-106.326859
7735.351562	-106.328033
7736.328125	-106.326233
7737.304688	-106.328323
7738.281250	-106.327469
7739.257812	-106.326576
7740.234375	-106.327858
7741.210938	-106.328323
7742.187500	-106.327477
7743.164062	-106.328239
7744.140625	-106.328995
7745.117188	-106.328934
7746.093750	-106.328651
7747.070312	-106.328384
7748.046875	-106.328819
7749.023438	-106.329483
7750.000000	-106.329575
7750.976562	-106.328888
7751.953125	-106.329742
7752.929688	-106.330139
7753.906250	-106.330185
7754.882812	-106.329475
7755.859375	-106.329460
7756.835938	-106.329842
7757.812500	-106.330376
7758.789062	-106.330513
7759.765625	-106.330620
7760.742188	-106.330658
7761.718750	-106.330109
7762.695312	-106.330612
7763.671875	-106.330963
7764.648438	-106.330330
7765.625000	-106.330826
7766.601562	-106.331078
7767.578125	-106.331177
7768.554688	-106.331467
7769.531250	-106.331696
7770.507812	-106.331200
7771.484375	-106.331970
7772.460938	-106.331665
7773.437500	-106.331726
7774.414062	-106.331894
7775.390625	-106.332069
7776.367188	-106.331902
7777.343750	-106.331886
7778.320312	-106.332016
7779.296875	-106.332253
7780.273438	-106.332474
7781.250000	-106.332260
7782.226562	-106.332886
7783.203125	-106.332970
7784.179688	-106.332664
7785.156250	-106.332626
7786.132812	-106.333138
7787.109375	-106.332970
7788.085938	-106.333427
7789.062500	-106.332886
7790.039062	-106.333160
7791.015625	-106.333618
7791.992188	-106.333664
7792.968750	-106.333549
7793.945312	-106.333687
7794.921875	-106.333931
7795.898438	-106.334152
7796.875000	-106.334045
7797.851562	-106.334137
7798.828125	-106.334023
7799.804688	-106.334427
7800.781250	-106.334457
7801.757812	-106.334656
7802.734375	-106.335045
7803.710938	-106.335083
7804.687500	-106.335220
7805.664062	-106.335472
7806.640625	-106.335052
7807.617188	-106.335449
7808.593750	-106.335587
7809.570312	-106.335686
7810.546875	-106.336014
7811.523438	-106.335938
7812.500000	-106.336029
7813.476562	-106.336311
7814.453125	-106.336388
7815.429688	-106.336533
7816.406250	-106.336807
7817.382812	-106.336769
7818.359375	-106.336784
7819.335938	-106.336983
7820.312500	-106.337112
7821.289062	-106.337364
7822.265625	-106.337410
7823.242188	-106.337578
7824.218750	-106.337662
7825.195312	-106.337814
7826.171875	-106.338013
7827.148438	-106.338181
7828.125000	-106.338150
7829.101562	-106.338364
7830.078125	-106.338402
7831.054688	-106.338631
7832.031250	-106.338730
7833.007812	-106.338799
7833.984375	-106.338989
7834.960938	-106.339096
7835.937500	-106.339188
7836.914062	-106.339279
7837.890625	-106.339417
7838.867188	-106.339310
7839.843750	-106.339729
7840.820312	-106.339729
7841.796875	-106.339859
7842.773438	-106.339813
7843.750000	-106.339981
7844.726562	-106.340126
7845.703125	-106.340157
7846.679688	-106.340370
7847.656250	-106.340317
7848.632812	-106.340385
7849.609375	-106.340378
7850.585938	-106.340576
7851.562500	-106.340607
7852.539062	-106.340767
7853.515625	-106.340736
7854.492188	-106.340851
7855.468750	-106.340904
7856.445312	-106.340919
7857.421875	-106.341087
7858.398438	-106.341072
7859.375000	-106.341042
7860.351562	-106.341263
7861.328125	-106.341217
7862.304688	-106.341225
7863.281250	-106.341263
7864.257812	-106.341370
7865.234375	-106.341415
7866.210938	-106.341446
7867.187500	-106.341400
7868.164062	-106.341545
7869.140625	-106.341591
7870.117188	-106.341576
7871.093750	-106.341652
7872.070312	-106.341652
7873.046875	-106.341690
7874.023438	-106.341736
7875.000000	-106.341728
7875.976562	-106.341797
7876.953125	-106.341843
7877.929688	-106.341843
7878.906250	-106.341866
7879.882812	-106.341911
7880.859375	-106.341911
7881.835938	-106.341980
7882.812500	-106.342018
7883.789062	-106.342049
7884.765625	-106.342094
7885.742188	-106.342117
7886.718750	-106.342163
7887.695312	-106.342262
7888.671875	-106.342255
7889.648438	-106.342316
7890.625000	-106.342323
7891.601562	-106.342400
7892.578125	-106.342400
7893.554688	-106.342484
7894.531250	-106.342529
7895.507812	-106.342598
7896.484375	-106.342644
7897.460938	-106.342682
7898.437500	-106.342735
7899.414062	-106.342834
7900.390625	-106.342903
7901.367188	-106.342934
7902.343750	-106.342987
7903.320312	-106.343071
7904.296875	-106.343117
7905.273438	-106.343185
7906.250000	-106.343246
7907.226562	-106.343330
7908.203125	-106.343391
7909.179688	-106.343468
7910.156250	-106.343552
7911.132812	-106.343590
7912.109375	-106.343697
7913.085938	-106.343742
7914.062500	-106.343842
7915.039062	-106.343933
7916.015625	-106.344002
7916.992188	-106.344078
7917.968750	-106.344162
7918.945312	-106.344269
7919.921875	-106.344315
7920.898438	-106.344406
7921.875000	-106.344467
7922.851562	-106.344543
7923.828125	-106.344620
7924.804688	-106.344711
7925.781250	-106.344765
7926.757812	-106.344879
7927.734375	-106.344948
7928.710938	-106.345032
7929.687500	-106.345093
7930.664062	-106.345169
7931.640625	-106.345215
7932.617188	-106.345276
7933.593750	-106.345345
7934.570312	-106.345413
7935.546875	-106.345512
7936.523438	-106.345528
7937.500000	-106.345596
7938.476562	-106.345650
7939.453125	-106.345711
7940.429688	-106.345772
7941.406250	-106.345825
7942.382812	-106.345863
7943.359375	-106.345901
7944.335938	-106.345955
7945.312500	-106.346001
7946.289062	-106.346024
7947.265625	-106.346054
7948.242188	-106.346092
7949.218750	-106.346100
7950.195312	-106.346146
7951.171875	-106.346169
7952.148438	-106.346169
7953.125000	-106.346207
7954.101562	-106.346214
7955.078125	-106.346222
7956.054688	-106.346245
7957.031250	-106.346237
7958.007812	-106.346245
7958.984375	-106.346245
7959.960938	-106.346237
7960.937500	-106.346283
7961.914062	-106.346222
7962.890625	-106.346230
7963.867188	-106.346230
7964.843750	-106.346252
7965.820312	-106.346176
7966.796875	-106.346191
7967.773438	-106.346191
7968.750000	-106.346169
7969.726562	-106.346146
7970.703125	-106.346115
7971.679688	-106.346100
7972.656250	-106.346077
7973.632812	-106.346046
7974.609375	-106.346062
7975.585938	-106.346039
7976.562500	-106.346008
7977.539062	-106.345985
7978.515625	-106.345955
7979.492188	-106.345963
7980.468750	-106.345901
7981.445312	-106.345901
7982.421875	-106.345901
7983.398438	-106.345863
7984.375000	-106.345840
7985.351562	-106.345795
7986.328125	-106.345772
7987.304688	-106.345779
7988.281250	-106.345757
7989.257812	-106.345703
7990.234375	-106.345711
7991.210938	-106.345718
7992.187500	-106.345688
7993.164062	-106.345673
7994.140625	-106.345657
7995.117188	-106.345642
7996.093750	-106.345642
7997.070312	-106.345627
7998.046875	-106.345657
7999.023438	-106.345657
