Frequency (Hz)	Level (dB)
0.976562	-47.368011
1.953125	-46.443363
2.929688	-47.575367
3.906250	-46.995396
4.882812	-47.069302
5.859375	-46.715240
6.835938	-46.827930
7.812500	-46.406357
8.789062	-45.976948
9.765625	-46.864544
10.742188	-47.579941
11.718750	-46.824657
12.695312	-47.390888
13.671875	-48.228588
14.648438	-47.236336
15.625000	-47.656372
16.601562	-46.822342
17.578125	-47.163872
18.554688	-46.811913
19.531250	-46.493690
20.507812	-46.859398
21.484375	-47.228252
22.460938	-46.965462
23.437500	-46.088749
24.414062	-45.976601
25.390625	-47.442257
26.367188	-47.679993
27.343750	-46.197762
28.320312	-46.648232
29.296875	-46.626827
30.273438	-47.167343
31.250000	-46.856609
32.226562	-46.883083
33.203125	-46.475502
34.179688	-46.942760
35.156250	-47.029289
36.132812	-47.511330
37.109375	-47.109737
38.085938	-47.585037
39.062500	-47.174500
40.039062	-47.051918
41.015625	-46.966801
41.992188	-47.082127
42.968750	-46.975727
43.945312	-46.203472
44.921875	-47.499001
45.898438	-47.406662
46.875000	-47.815716
47.851562	-46.933338
48.828125	-47.091019
49.804688	-46.810555
50.781250	-47.161263
51.757812	-46.551456
52.734375	-46.198875
53.710938	-46.940075
54.687500	-46.898102
55.664062	-47.200096
56.640625	-47.009663
57.617188	-47.516781
58.593750	-47.221107
59.570312	-46.641022
60.546875	-46.473087
61.523438	-46.312126
62.500000	-47.221252
63.476562	-46.793388
64.453125	-47.224476
65.429688	-47.131413
66.406250	-46.727043
67.382812	-46.903522
68.359375	-46.542576
69.335938	-47.317146
70.312500	-47.186436
71.289062	-46.747726
72.265625	-48.033630
73.242188	-47.082359
74.218750	-47.141075
75.195312	-46.926033
76.171875	-47.277176
77.148438	-46.892658
78.125000	-47.175308
79.101562	-47.105587
80.078125	-46.230343
81.054688	-46.528965
82.031250	-47.079830
83.007812	-47.407173
83.984375	-47.193436
84.960938	-46.646996
85.937500	-46.490997
86.914062	-46.139015
87.890625	-46.891724
88.867188	-47.081856
89.843750	-46.879230
90.820312	-46.419891
91.796875	-46.951847
92.773438	-46.629738
93.750000	-46.149384
94.726562	-46.776211
95.703125	-47.089478
96.679688	-46.872635
97.656250	-47.415730
98.632812	-46.931770
99.609375	-46.269608
100.585938	-47.521496
101.562500	-46.938847
102.539062	-47.350021
103.515625	-46.812084
104.492188	-46.655998
105.468750	-46.684414
106.445312	-47.265316
107.421875	-47.075100
108.398438	-46.518005
109.375000	-46.183353
110.351562	-47.199699
111.328125	-46.483391
112.304688	-46.817131
113.281250	-46.689541
114.257812	-46.455666
115.234375	-46.756130
116.210938	-47.268608
117.187500	-46.988308
118.164062	-46.916389
119.140625	-47.601067
120.117188	-46.925877
121.093750	-46.922218
122.070312	-47.352928
123.046875	-46.799862
124.023438	-46.756329
125.000000	-46.759579
125.976562	-47.245136
126.953125	-47.534401
127.929688	-47.655502
128.906250	-46.380737
129.882812	-46.751003
130.859375	-46.329311
131.835938	-47.031246
132.812500	-47.607357
133.789062	-46.747337
134.765625	-47.607651
135.742188	-47.469780
136.718750	-46.465736
137.695312	-46.357075
138.671875	-46.644466
139.648438	-46.791904
140.625000	-47.171734
141.601562	-46.601376
142.578125	-46.486675
143.554688	-46.624706
144.531250	-46.521408
145.507812	-47.049156
146.484375	-47.042587
147.460938	-47.150314
148.437500	-46.668488
149.414062	-47.231586
150.390625	-46.448387
151.367188	-46.267624
152.343750	-47.258892
153.320312	-46.436474
154.296875	-46.957329
155.273438	-45.872540
156.250000	-46.582188
157.226562	-46.983593
158.203125	-46.749104
159.179688	-47.413048
160.156250	-47.655800
161.132812	-46.474953
162.109375	-46.901932
163.085938	-47.298637
164.062500	-46.619598
165.039062	-46.686844
166.015625	-46.397850
166.992188	-46.871277
167.968750	-46.961121
168.945312	-48.036396
169.921875	-47.335205
170.898438	-47.453648
171.875000	-47.161564
172.851562	-47.008350
173.828125	-47.528431
174.804688	-47.643341
175.781250	-46.601166
176.757812	-47.074333
177.734375	-46.602459
178.710938	-46.459057
179.687500	-46.896446
180.664062	-46.339397
181.640625	-46.708950
182.617188	-46.804321
183.593750	-47.038830
184.570312	-46.912224
185.546875	-47.591137
186.523438	-47.452702
187.500000	-46.846054
188.476562	-47.188072
189.453125	-47.116535
190.429688	-47.301800
191.406250	-46.839874
192.382812	-46.790100
193.359375	-46.773903
194.335938	-47.093296
195.312500	-47.207478
196.289062	-47.140938
197.265625	-47.411419
198.242188	-47.325253
199.218750	-47.252895
200.195312	-47.083839
201.171875	-47.205669
202.148438	-47.619308
203.125000	-47.185616
204.101562	-46.599052
205.078125	-46.700199
206.054688	-46.901936
207.031250	-46.783192
208.007812	-46.671059
208.984375	-46.755867
209.960938	-46.700203
210.937500	-47.167145
211.914062	-46.582645
212.890625	-47.240841
213.867188	-46.555603
214.843750	-46.377701
215.820312	-46.637959
216.796875	-47.239086
217.773438	-46.358700
218.750000	-46.666313
219.726562	-47.264870
220.703125	-47.008999
221.679688	-46.694801
222.656250	-47.393517
223.632812	-47.217316
224.609375	-47.382118
225.585938	-46.747051
226.562500	-46.436695
227.539062	-47.325275
228.515625	-47.530182
229.492188	-46.817108
230.468750	-46.756775
231.445312	-47.629677
232.421875	-47.429325
233.398438	-46.775036
234.375000	-46.810730
235.351562	-47.081558
236.328125	-46.985271
237.304688	-46.117771
238.281250	-46.063221
239.257812	-46.903488
240.234375	-46.179913
241.210938	-46.791199
242.187500	-47.255547
243.164062	-47.036766
244.140625	-46.967583
245.117188	-46.736904
246.093750	-46.750568
247.070312	-46.452263
248.046875	-46.828644
249.023438	-47.616211
250.000000	-47.112686
250.976562	-46.301147
251.953125	-47.264114
252.929688	-47.046391
253.906250	-46.941181
254.882812	-46.696648
255.859375	-46.730976
256.835938	-46.893394
257.812500	-47.146957
258.789062	-47.155800
259.765625	-47.089497
260.742188	-47.170757
261.718750	-47.398670
262.695312	-46.539379
263.671875	-47.094147
264.648438	-45.879448
265.625000	-46.456062
266.601562	-46.719257
267.578125	-47.522900
268.554688	-46.815224
269.531250	-47.486477
270.507812	-47.627457
271.484375	-46.474869
272.460938	-46.935627
273.437500	-46.206615
274.414062	-47.004131
275.390625	-47.179996
276.367188	-46.935738
277.343750	-46.624512
278.320312	-47.075142
279.296875	-46.511414
280.273438	-47.128475
281.250000	-47.288292
282.226562	-47.287285
283.203125	-47.289852
284.179688	-46.922298
285.156250	-47.310314
286.132812	-47.011513
287.109375	-47.338825
288.085938	-46.826607
289.062500	-47.715439
290.039062	-47.551456
291.015625	-47.173351
291.992188	-47.026276
292.968750	-47.164104
293.945312	-47.086102
294.921875	-46.858963
295.898438	-47.358356
296.875000	-46.894642
297.851562	-47.282043
298.828125	-46.750679
299.804688	-47.176304
300.781250	-46.044296
301.757812	-46.925320
302.734375	-46.399956
303.710938	-46.183582
304.687500	-47.400501
305.664062	-47.130669
306.640625	-46.710712
307.617188	-46.725853
308.593750	-47.092651
309.570312	-47.775295
310.546875	-47.572243
311.523438	-46.117489
312.500000	-46.353451
313.476562	-47.159477
314.453125	-47.572479
315.429688	-46.866493
316.406250	-46.816071
317.382812	-47.439228
318.359375	-46.600727
319.335938	-46.797150
320.312500	-46.254230
321.289062	-46.195007
322.265625	-46.551403
323.242188	-46.148697
324.218750	-46.470688
325.195312	-46.967098
326.171875	-47.383255
327.148438	-46.440510
328.125000	-46.822880
329.101562	-46.554935
330.078125	-47.609516
331.054688	-46.839031
332.031250	-47.251766
333.007812	-46.488094
333.984375	-47.172756
334.960938	-46.602417
335.937500	-47.146538
336.914062	-47.098572
337.890625	-46.291142
338.867188	-46.933338
339.843750	-46.723824
340.820312	-47.139000
341.796875	-46.647369
342.773438	-46.530479
343.750000	-47.112320
344.726562	-46.003735
345.703125	-45.972919
346.679688	-47.259064
347.656250	-47.421436
348.632812	-47.243088
349.609375	-47.494301
350.585938	-46.401169
351.562500	-47.318714
352.539062	-47.438675
353.515625	-47.122189
354.492188	-47.487961
355.468750	-46.616455
356.445312	-47.099632
357.421875	-46.988777
358.398438	-46.113525
359.375000	-46.585087
360.351562	-46.828457
361.328125	-47.006123
362.304688	-47.173473
363.281250	-47.414093
364.257812	-47.344162
365.234375	-47.566597
366.210938	-47.244999
367.187500	-46.487484
368.164062	-47.086456
369.140625	-46.843594
370.117188	-46.989834
371.093750	-46.270035
372.070312	-46.693211
373.046875	-46.759197
374.023438	-46.077755
375.000000	-47.219719
375.976562	-47.162346
376.953125	-47.283833
377.929688	-46.969395
378.906250	-46.389565
379.882812	-47.204624
380.859375	-48.180836
381.835938	-47.307606
382.812500	-46.773724
383.789062	-46.726940
384.765625	-47.349476
385.742188	-47.033234
386.718750	-46.977440
387.695312	-46.688072
388.671875	-46.461094
389.648438	-46.266270
390.625000	-47.240208
391.601562	-47.297642
392.578125	-46.530514
393.554688	-47.362709
394.531250	-47.084488
395.507812	-47.132450
396.484375	-46.433891
397.460938	-46.513638
398.437500	-46.737164
399.414062	-46.317348
400.390625	-47.042248
401.367188	-47.478035
402.343750	-46.614182
403.320312	-46.936031
404.296875	-47.725769
405.273438	-46.809727
406.250000	-46.938618
407.226562	-47.014538
408.203125	-46.506699
409.179688	-47.434498
410.156250	-46.604263
411.132812	-47.636047
412.109375	-47.282917
413.085938	-46.968918
414.062500	-46.874489
415.039062	-47.267834
416.015625	-46.200340
416.992188	-46.604610
417.968750	-47.533230
418.945312	-46.526405
419.921875	-46.872448
420.898438	-46.523033
421.875000	-47.034634
422.851562	-46.600170
423.828125	-46.522316
424.804688	-46.573517
425.781250	-47.080334
426.757812	-46.726242
427.734375	-46.885204
428.710938	-47.948750
429.687500	-46.952736
430.664062	-47.144386
431.640625	-47.156513
432.617188	-46.887894
433.593750	-46.856983
434.570312	-46.439278
435.546875	-46.962383
436.523438	-47.770649
437.500000	-47.357552
438.476562	-46.603088
439.453125	-46.934902
440.429688	-46.729450
441.406250	-46.787140
442.382812	-47.107498
443.359375	-47.071568
444.335938	-46.708836
445.312500	-46.857067
446.289062	-46.518429
447.265625	-46.724415
448.242188	-46.913567
449.218750	-46.673702
450.195312	-47.432858
451.171875	-47.255196
452.148438	-47.095230
453.125000	-47.449169
454.101562	-47.316570
455.078125	-47.090561
456.054688	-46.625698
457.031250	-47.262562
458.007812	-47.340271
458.984375	-47.403168
459.960938	-47.472858
460.937500	-47.011391
461.914062	-46.551311
462.890625	-47.253128
463.867188	-46.317978
464.843750	-47.379719
465.820312	-46.689880
466.796875	-47.137337
467.773438	-46.969231
468.750000	-46.682224
469.726562	-47.679569
470.703125	-46.990379
471.679688	-46.283840
472.656250	-46.163216
473.632812	-46.901142
474.609375	-47.418369
475.585938	-46.999371
476.562500	-47.225975
477.539062	-46.740101
478.515625	-46.464558
479.492188	-46.410858
480.468750	-46.708435
481.445312	-46.919876
482.421875	-46.569546
483.398438	-47.187649
484.375000	-47.394585
485.351562	-46.891106
486.328125	-47.738468
487.304688	-46.912296
488.281250	-46.871357
489.257812	-47.496220
490.234375	-47.664589
491.210938	-46.644211
492.187500	-46.620411
493.164062	-46.994240
494.140625	-46.905510
495.117188	-46.969505
496.093750	-47.204372
497.070312	-47.247375
498.046875	-46.999043
499.023438	-46.989765
500.000000	-47.280663
500.976562	-47.467941
501.953125	-46.916214
502.929688	-46.821404
503.906250	-46.369904
504.882812	-47.430653
505.859375	-47.168175
506.835938	-46.449146
507.812500	-46.949837
508.789062	-46.644436
509.765625	-47.687401
510.742188	-47.003014
511.718750	-46.547054
512.695312	-47.432819
513.671875	-47.170448
514.648438	-47.125607
515.625000	-47.389385
516.601562	-46.444447
517.578125	-46.845547
518.554688	-46.560425
519.531250	-46.583523
520.507812	-47.126904
521.484375	-47.152954
522.460938	-47.338692
523.437500	-47.211369
524.414062	-47.448586
525.390625	-47.702412
526.367188	-47.290154
527.343750	-46.412182
528.320312	-46.159103
529.296875	-46.591583
530.273438	-46.523350
531.250000	-46.820129
532.226562	-46.964649
533.203125	-47.068970
534.179688	-46.994118
535.156250	-47.468121
536.132812	-46.931896
537.109375	-47.254990
538.085938	-47.237106
539.062500	-46.662468
540.039062	-46.783512
541.015625	-47.473316
541.992188	-46.732220
542.968750	-46.999889
543.945312	-47.257900
544.921875	-46.966755
545.898438	-46.548859
546.875000	-47.298813
547.851562	-46.746082
548.828125	-48.224937
549.804688	-48.192432
550.781250	-46.432285
551.757812	-46.992260
552.734375	-46.623302
553.710938	-46.659771
554.687500	-47.078697
555.664062	-46.555515
556.640625	-46.956505
557.617188	-46.777576
558.593750	-47.606670
559.570312	-47.422638
560.546875	-47.355732
561.523438	-46.429676
562.500000	-47.170876
563.476562	-46.990444
564.453125	-47.233253
565.429688	-46.473209
566.406250	-46.747532
567.382812	-46.615391
568.359375	-46.652660
569.335938	-46.552799
570.312500	-47.314243
571.289062	-47.340801
572.265625	-46.856560
573.242188	-47.026154
574.218750	-46.764076
575.195312	-46.484375
576.171875	-47.287064
577.148438	-47.389050
578.125000	-46.558113
579.101562	-47.715500
580.078125	-47.791790
581.054688	-46.576576
582.031250	-46.812588
583.007812	-47.491344
583.984375	-46.632454
584.960938	-46.946465
585.937500	-47.395699
586.914062	-47.469978
587.890625	-47.101551
588.867188	-47.411137
589.843750	-47.680340
590.820312	-46.877995
591.796875	-46.669079
592.773438	-47.399605
593.750000	-47.169163
594.726562	-46.753025
595.703125	-47.049839
596.679688	-46.756554
597.656250	-46.828522
598.632812	-47.172798
599.609375	-46.742184
600.585938	-46.603939
601.562500	-47.236176
602.539062	-45.792149
603.515625	-47.907238
604.492188	-47.070274
605.468750	-46.447475
606.445312	-47.165688
607.421875	-47.861931
608.398438	-46.947796
609.375000	-46.213505
610.351562	-47.063347
611.328125	-46.763081
612.304688	-46.986290
613.281250	-47.153526
614.257812	-46.984665
615.234375	-47.131737
616.210938	-46.986824
617.187500	-46.671219
618.164062	-46.425640
619.140625	-46.884296
620.117188	-46.422794
621.093750	-47.330811
622.070312	-46.779980
623.046875	-47.264111
624.023438	-47.005581
625.000000	-46.764927
625.976562	-46.858440
626.953125	-46.516506
627.929688	-46.139942
628.906250	-45.924477
629.882812	-45.859722
630.859375	-46.329491
631.835938	-46.877316
632.812500	-46.659870
633.789062	-47.121483
634.765625	-47.420803
635.742188	-46.851631
636.718750	-46.446598
637.695312	-47.480820
638.671875	-46.498112
639.648438	-47.047398
640.625000	-46.347698
641.601562	-46.985645
642.578125	-47.578831
643.554688	-48.116428
644.531250	-47.321323
645.507812	-47.440994
646.484375	-47.427830
647.460938	-46.361073
648.437500	-46.871124
649.414062	-46.560043
650.390625	-46.907612
651.367188	-47.186630
652.343750	-46.481277
653.320312	-47.047245
654.296875	-47.096012
655.273438	-46.626259
656.250000	-46.239628
657.226562	-46.275902
658.203125	-46.756134
659.179688	-47.167316
660.156250	-47.830242
661.132812	-46.842331
662.109375	-46.732380
663.085938	-47.609573
664.062500	-47.130249
665.039062	-47.231411
666.015625	-47.188541
666.992188	-46.146805
667.968750	-46.789776
668.945312	-47.067501
669.921875	-46.730587
670.898438	-47.208035
671.875000	-47.090622
672.851562	-47.214085
673.828125	-46.650066
674.804688	-47.254745
675.781250	-47.665592
676.757812	-47.717701
677.734375	-46.519249
678.710938	-46.868904
679.687500	-46.902107
680.664062	-46.322750
681.640625	-47.417942
682.617188	-46.805107
683.593750	-46.486980
684.570312	-47.083939
685.546875	-45.906853
686.523438	-46.914536
687.500000	-46.200100
688.476562	-47.096554
689.453125	-46.511433
690.429688	-46.805603
691.406250	-46.509232
692.382812	-46.879196
693.359375	-47.079075
694.335938	-46.477295
695.312500	-47.451633
696.289062	-47.078331
697.265625	-47.203777
698.242188	-46.967270
699.218750	-47.385338
700.195312	-47.031815
701.171875	-46.434055
702.148438	-47.123264
703.125000	-46.906628
704.101562	-46.603077
705.078125	-46.700226
706.054688	-47.143314
707.031250	-46.743767
708.007812	-46.773731
708.984375	-47.051949
709.960938	-46.852585
710.937500	-47.403530
711.914062	-47.123180
712.890625	-46.943550
713.867188	-46.950638
714.843750	-47.349934
715.820312	-47.236229
716.796875	-47.018841
717.773438	-47.033726
718.750000	-47.341587
719.726562	-46.728207
720.703125	-47.349094
721.679688	-47.223705
722.656250	-46.945263
723.632812	-46.581287
724.609375	-47.036697
725.585938	-47.502892
726.562500	-47.464630
727.539062	-46.626759
728.515625	-47.099659
729.492188	-47.101860
730.468750	-46.577709
731.445312	-47.002842
732.421875	-46.908409
733.398438	-46.265762
734.375000	-47.797508
735.351562	-47.100460
736.328125	-47.072628
737.304688	-46.976158
738.281250	-47.283821
739.257812	-46.686127
740.234375	-46.938011
741.210938	-46.664131
742.187500	-46.936520
743.164062	-47.119427
744.140625	-46.268433
745.117188	-47.764992
746.093750	-47.717773
747.070312	-46.182842
748.046875	-46.693470
749.023438	-46.324661
750.000000	-46.465370
750.976562	-46.818569
751.953125	-47.382015
752.929688	-46.529305
753.906250	-46.487385
754.882812	-46.713333
755.859375	-46.907963
756.835938	-46.977100
757.812500	-47.029289
758.789062	-46.716484
759.765625	-47.488995
760.742188	-47.417496
761.718750	-47.157906
762.695312	-46.711407
763.671875	-47.374390
764.648438	-46.739811
765.625000	-46.918671
766.601562	-47.010609
767.578125	-46.823277
768.554688	-46.989166
769.531250	-47.250587
770.507812	-47.357811
771.484375	-46.917313
772.460938	-46.728424
773.437500	-46.780262
774.414062	-47.218372
775.390625	-46.625763
776.367188	-47.037411
777.343750	-46.759113
778.320312	-47.217636
779.296875	-47.206478
780.273438	-47.215183
781.250000	-46.679138
782.226562	-46.614532
783.203125	-47.265194
784.179688	-46.970974
785.156250	-46.601128
786.132812	-46.313675
787.109375	-46.751862
788.085938	-46.347336
789.062500	-46.313442
790.039062	-46.778561
791.015625	-46.644520
791.992188	-47.028263
792.968750	-46.456276
793.945312	-47.231110
794.921875	-47.489967
795.898438	-46.306595
796.875000	-46.806206
797.851562	-46.821201
798.828125	-46.863152
799.804688	-47.204922
800.781250	-45.978889
801.757812	-46.846642
802.734375	-46.850471
803.710938	-46.965202
804.687500	-47.044720
805.664062	-47.314240
806.640625	-47.367718
807.617188	-46.821930
808.593750	-45.980854
809.570312	-46.598782
810.546875	-46.934654
811.523438	-46.651257
812.500000	-47.520134
813.476562	-46.842419
814.453125	-46.213554
815.429688	-47.089233
816.406250	-47.045036
817.382812	-46.877670
818.359375	-46.726322
819.335938	-47.169071
820.312500	-46.951767
821.289062	-47.001137
822.265625	-47.164913
823.242188	-46.623489
824.218750	-47.473572
825.195312	-47.111492
826.171875	-47.394394
827.148438	-47.326897
828.125000	-47.133396
829.101562	-46.637730
830.078125	-46.641804
831.054688	-46.148327
832.031250	-46.451294
833.007812	-47.555840
833.984375	-47.528099
834.960938	-46.170334
835.937500	-46.614838
836.914062	-47.247986
837.890625	-46.651955
838.867188	-46.968296
839.843750	-47.197598
840.820312	-47.722168
841.796875	-47.212875
842.773438	-46.492863
843.750000	-47.251717
844.726562	-46.551453
845.703125	-46.135376
846.679688	-46.694653
847.656250	-46.468010
848.632812	-46.680843
849.609375	-46.734596
850.585938	-47.599117
851.562500	-47.483242
852.539062	-47.375027
853.515625	-47.177719
854.492188	-47.577671
855.468750	-46.560040
856.445312	-47.099152
857.421875	-46.621494
858.398438	-46.732700
859.375000	-47.319923
860.351562	-46.687969
861.328125	-46.303619
862.304688	-47.017654
863.281250	-46.699547
864.257812	-47.555275
865.234375	-46.815311
866.210938	-46.883389
867.187500	-46.563461
868.164062	-46.513794
869.140625	-46.426723
870.117188	-47.308388
871.093750	-46.918396
872.070312	-47.784027
873.046875	-47.527306
874.023438	-46.352009
875.000000	-47.608253
875.976562	-46.567886
876.953125	-46.630756
877.929688	-46.849785
878.906250	-47.528175
879.882812	-47.175812
880.859375	-46.892994
881.835938	-46.866631
882.812500	-47.024044
883.789062	-46.834579
884.765625	-46.388958
885.742188	-45.734390
886.718750	-46.949829
887.695312	-47.791702
888.671875	-47.303871
889.648438	-46.998619
890.625000	-46.591759
891.601562	-46.936867
892.578125	-46.868519
893.554688	-46.409687
894.531250	-46.860619
895.507812	-46.421635
896.484375	-46.917023
897.460938	-46.560612
898.437500	-46.922188
899.414062	-46.641365
900.390625	-46.475662
901.367188	-47.349194
902.343750	-46.520073
903.320312	-46.814461
904.296875	-47.145512
905.273438	-46.682564
906.250000	-46.655975
907.226562	-47.134460
908.203125	-46.739201
909.179688	-47.119473
910.156250	-46.890728
911.132812	-47.837334
912.109375	-46.653156
913.085938	-46.565453
914.062500	-47.753193
915.039062	-47.241356
916.015625	-46.816315
916.992188	-46.611156
917.968750	-47.489147
918.945312	-47.303291
919.921875	-46.662064
920.898438	-46.886333
921.875000	-46.782997
922.851562	-47.062901
923.828125	-47.519253
924.804688	-46.913548
925.781250	-46.788857
926.757812	-47.419544
927.734375	-46.799732
928.710938	-47.133865
929.687500	-47.567085
930.664062	-47.525333
931.640625	-46.862896
932.617188	-46.648781
933.593750	-46.813652
934.570312	-47.006878
935.546875	-47.377232
936.523438	-46.924229
937.500000	-46.917320
938.476562	-47.181854
939.453125	-47.641186
940.429688	-47.197411
941.406250	-47.485146
942.382812	-47.977787
943.359375	-47.515476
944.335938	-46.960430
945.312500	-46.489288
946.289062	-46.963203
947.265625	-46.627975
948.242188	-47.034599
949.218750	-46.221558
950.195312	-47.494816
951.171875	-47.251785
952.148438	-47.574905
953.125000	-46.900890
954.101562	-46.873539
955.078125	-47.125893
956.054688	-47.208233
957.031250	-46.453373
958.007812	-46.461842
958.984375	-46.916279
959.960938	-47.425396
960.937500	-46.167702
961.914062	-47.078796
962.890625	-46.661209
963.867188	-46.712917
964.843750	-46.623489
965.820312	-47.150665
966.796875	-47.162422
967.773438	-46.223110
968.750000	-46.769505
969.726562	-46.273506
970.703125	-47.213512
971.679688	-47.156963
972.656250	-45.896854
973.632812	-46.916748
974.609375	-46.708717
975.585938	-46.410294
976.562500	-47.442844
977.539062	-47.253517
978.515625	-46.285023
979.492188	-45.880787
980.468750	-46.654907
981.445312	-46.641949
982.421875	-47.632755
983.398438	-47.029499
984.375000	-46.920967
985.351562	-46.849995
986.328125	-47.354919
987.304688	-47.340260
988.281250	-47.055637
989.257812	-46.643234
990.234375	-47.050991
991.210938	-46.963402
992.187500	-47.281944
993.164062	-47.571533
994.140625	-46.714439
995.117188	-46.050659
996.093750	-46.475784
997.070312	-46.966961
998.046875	-46.154907
999.023438	-47.266708
1000.000000	-46.733891
1000.976562	-46.367958
1001.953125	-47.180576
1002.929688	-46.666611
1003.906250	-47.707485
1004.882812	-46.252865
1005.859375	-46.467274
1006.835938	-46.822647
1007.812500	-46.666393
1008.789062	-47.085976
1009.765625	-47.907284
1010.742188	-46.998844
1011.718750	-46.623741
1012.695312	-46.974155
1013.671875	-47.283344
1014.648438	-47.301891
1015.625000	-46.870388
1016.601562	-46.834946
1017.578125	-46.783974
1018.554688	-46.936260
1019.531250	-47.476871
1020.507812	-46.538334
1021.484375	-46.785358
1022.460938	-46.986759
1023.437500	-47.380005
1024.414062	-47.001793
1025.390625	-48.096069
1026.367188	-47.398911
1027.343750	-46.584805
1028.320312	-46.681576
1029.296875	-46.648716
1030.273438	-47.245754
1031.250000	-46.791473
1032.226562	-47.646107
1033.203125	-46.423637
1034.179688	-46.123161
1035.156250	-46.068954
1036.132812	-46.900253
1037.109375	-46.969975
1038.085938	-46.819145
1039.062500	-46.720787
1040.039062	-47.864323
1041.015625	-47.840298
1041.992188	-46.613323
1042.968750	-46.497543
1043.945312	-47.176170
1044.921875	-47.679661
1045.898438	-47.332661
1046.875000	-46.867622
1047.851562	-46.699207
1048.828125	-47.082352
1049.804688	-47.191799
1050.781250	-46.315598
1051.757812	-47.067520
1052.734375	-46.621140
1053.710938	-46.684948
1054.687500	-47.058445
1055.664062	-46.513130
1056.640625	-45.986565
1057.617188	-47.206497
1058.593750	-47.180000
1059.570312	-47.344658
1060.546875	-46.915184
1061.523438	-45.908325
1062.500000	-46.973591
1063.476562	-47.298779
1064.453125	-47.291702
1065.429688	-47.241077
1066.406250	-48.058941
1067.382812	-46.799610
1068.359375	-46.822113
1069.335938	-47.024975
1070.312500	-46.999874
1071.289062	-46.626019
1072.265625	-46.853527
1073.242188	-47.460453
1074.218750	-46.777122
1075.195312	-46.785099
1076.171875	-47.312714
1077.148438	-46.777580
1078.125000	-46.686771
1079.101562	-47.021004
1080.078125	-46.681461
1081.054688	-46.641693
1082.031250	-47.087265
1083.007812	-47.246346
1083.984375	-46.303745
1084.960938	-47.518406
1085.937500	-47.111897
1086.914062	-47.221367
1087.890625	-47.118500
1088.867188	-46.167255
1089.843750	-47.909016
1090.820312	-47.126568
1091.796875	-47.199524
1092.773438	-47.669468
1093.750000	-46.225609
1094.726562	-46.308773
1095.703125	-47.207390
1096.679688	-46.897938
1097.656250	-47.201839
1098.632812	-47.449955
1099.609375	-47.179478
1100.585938	-46.289951
1101.562500	-46.932858
1102.539062	-46.719242
1103.515625	-47.145035
1104.492188	-46.950500
1105.468750	-47.441185
1106.445312	-46.849815
1107.421875	-46.776489
1108.398438	-47.340084
1109.375000	-47.204418
1110.351562	-47.721912
1111.328125	-46.839558
1112.304688	-47.599663
1113.281250	-47.113995
1114.257812	-46.514091
1115.234375	-46.769730
1116.210938	-46.528706
1117.187500	-46.363571
1118.164062	-46.819008
1119.140625	-46.543442
1120.117188	-46.703651
1121.093750	-47.141457
1122.070312	-46.915192
1123.046875	-47.071690
1124.023438	-47.394585
1125.000000	-46.918903
1125.976562	-47.370083
1126.953125	-47.036243
1127.929688	-46.842197
1128.906250	-47.077579
1129.882812	-47.215164
1130.859375	-47.081161
1131.835938	-46.270828
1132.812500	-46.911545
1133.789062	-46.714931
1134.765625	-47.431767
1135.742188	-47.358120
1136.718750	-47.501968
1137.695312	-46.420662
1138.671875	-46.517838
1139.648438	-47.296505
1140.625000	-47.076996
1141.601562	-47.181248
1142.578125	-46.644836
1143.554688	-46.761654
1144.531250	-46.920567
1145.507812	-47.297638
1146.484375	-46.751724
1147.460938	-47.334896
1148.437500	-46.409740
1149.414062	-47.238251
1150.390625	-46.699543
1151.367188	-47.328342
1152.343750	-46.444672
1153.320312	-46.530933
1154.296875	-46.986637
1155.273438	-46.995277
1156.250000	-47.497063
1157.226562	-47.631870
1158.203125	-47.068779
1159.179688	-46.558197
1160.156250	-47.323696
1161.132812	-47.058830
1162.109375	-47.136059
1163.085938	-47.249352
1164.062500	-46.972176
1165.039062	-47.015442
1166.015625	-46.709522
1166.992188	-47.452053
1167.968750	-47.112709
1168.945312	-46.783562
1169.921875	-47.324745
1170.898438	-46.914326
1171.875000	-47.466942
1172.851562	-47.947075
1173.828125	-46.498154
1174.804688	-46.889542
1175.781250	-46.475491
1176.757812	-46.671700
1177.734375	-46.554741
1178.710938	-46.660412
1179.687500	-46.750603
1180.664062	-47.502140
1181.640625	-47.058449
1182.617188	-46.009624
1183.593750	-47.232388
1184.570312	-47.510181
1185.546875	-46.700279
1186.523438	-46.791359
1187.500000	-46.804623
1188.476562	-47.092098
1189.453125	-46.885967
1190.429688	-47.215858
1191.406250	-46.873592
1192.382812	-47.769623
1193.359375	-46.900524
1194.335938	-47.146614
1195.312500	-47.686558
1196.289062	-47.313442
1197.265625	-47.460262
1198.242188	-46.349163
1199.218750	-47.173306
1200.195312	-46.503883
1201.171875	-46.402561
1202.148438	-46.783432
1203.125000	-46.387882
1204.101562	-46.562424
1205.078125	-47.060215
1206.054688	-46.987556
1207.031250	-46.962513
1208.007812	-47.205299
1208.984375	-46.447773
1209.960938	-46.334126
1210.937500	-47.423260
1211.914062	-46.971706
1212.890625	-46.021099
1213.867188	-47.136955
1214.843750	-46.544533
1215.820312	-46.935688
1216.796875	-47.555908
1217.773438	-46.842785
1218.750000	-47.244324
1219.726562	-46.112293
1220.703125	-46.872490
1221.679688	-47.365108
1222.656250	-47.261497
1223.632812	-47.795204
1224.609375	-46.486923
1225.585938	-46.612137
1226.562500	-47.013996
1227.539062	-47.305050
1228.515625	-47.082703
1229.492188	-46.917107
1230.468750	-47.463772
1231.445312	-46.497829
1232.421875	-47.299267
1233.398438	-47.268200
1234.375000	-46.710926
1235.351562	-46.627968
1236.328125	-47.406723
1237.304688	-46.706547
1238.281250	-46.843712
1239.257812	-47.298065
1240.234375	-46.639458
1241.210938	-46.692734
1242.187500	-46.941895
1243.164062	-46.563248
1244.140625	-46.882641
1245.117188	-46.943520
1246.093750	-46.841484
1247.070312	-46.620571
1248.046875	-47.242584
1249.023438	-46.858200
1250.000000	-46.855415
1250.976562	-47.124821
1251.953125	-47.088711
1252.929688	-47.145386
1253.906250	-46.453720
1254.882812	-46.413280
1255.859375	-47.191204
1256.835938	-46.744259
1257.812500	-47.118496
1258.789062	-47.363209
1259.765625	-47.210529
1260.742188	-46.744049
1261.718750	-46.372890
1262.695312	-47.102707
1263.671875	-47.159641
1264.648438	-46.471054
1265.625000	-46.648041
1266.601562	-47.626907
1267.578125	-46.551136
1268.554688	-47.281330
1269.531250	-47.395676
1270.507812	-46.033825
1271.484375	-47.019840
1272.460938	-47.458611
1273.437500	-46.389957
1274.414062	-46.493748
1275.390625	-47.016193
1276.367188	-46.950253
1277.343750	-46.973782
1278.320312	-46.892208
1279.296875	-47.610386
1280.273438	-47.297504
1281.250000	-46.562748
1282.226562	-46.611259
1283.203125	-46.944565
1284.179688	-47.260258
1285.156250	-46.910992
1286.132812	-47.128441
1287.109375	-46.360622
1288.085938	-47.278316
1289.062500	-46.329937
1290.039062	-46.076782
1291.015625	-46.628159
1291.992188	-46.639912
1292.968750	-47.163025
1293.945312	-46.501354
1294.921875	-48.031342
1295.898438	-47.010960
1296.875000	-47.007172
1297.851562	-47.087688
1298.828125	-46.568356
1299.804688	-46.826099
1300.781250	-47.366871
1301.757812	-46.925510
1302.734375	-47.170860
1303.710938	-47.305599
1304.687500	-46.612801
1305.664062	-46.893978
1306.640625	-46.828232
1307.617188	-46.624130
1308.593750	-47.695095
1309.570312	-47.848431
1310.546875	-46.937557
1311.523438	-47.342659
1312.500000	-47.044857
1313.476562	-47.191280
1314.453125	-47.013378
1315.429688	-46.203278
1316.406250	-46.023907
1317.382812	-46.430653
1318.359375	-46.565434
1319.335938	-46.820518
1320.312500	-46.454597
1321.289062	-46.389111
1322.265625	-45.987560
1323.242188	-46.977158
1324.218750	-46.773136
1325.195312	-46.886860
1326.171875	-47.031612
1327.148438	-46.581482
1328.125000	-46.892132
1329.101562	-47.621716
1330.078125	-47.262455
1331.054688	-47.284401
1332.031250	-46.843189
1333.007812	-47.607403
1333.984375	-47.350723
1334.960938	-46.956520
1335.937500	-47.155670
1336.914062	-46.450539
1337.890625	-47.517521
1338.867188	-47.580139
1339.843750	-47.270321
1340.820312	-47.615307
1341.796875	-47.099644
1342.773438	-46.669109
1343.750000	-46.564468
1344.726562	-47.039021
1345.703125	-47.198021
1346.679688	-46.589069
1347.656250	-47.731777
1348.632812	-46.870659
1349.609375	-46.712601
1350.585938	-46.777752
1351.562500	-46.678646
1352.539062	-46.386066
1353.515625	-46.944275
1354.492188	-47.420467
1355.468750	-47.052483
1356.445312	-47.522358
1357.421875	-48.028065
1358.398438	-47.103569
1359.375000	-46.697014
1360.351562	-47.015522
1361.328125	-47.152214
1362.304688	-46.364567
1363.281250	-47.496033
1364.257812	-46.943272
1365.234375	-46.591080
1366.210938	-46.996773
1367.187500	-46.883926
1368.164062	-46.269962
1369.140625	-46.781662
1370.117188	-47.259247
1371.093750	-46.786793
1372.070312	-47.231709
1373.046875	-46.375130
1374.023438	-46.834602
1375.000000	-47.626507
1375.976562	-46.962154
1376.953125	-47.337376
1377.929688	-46.089012
1378.906250	-47.211597
1379.882812	-47.444805
1380.859375	-47.067577
1381.835938	-47.699181
1382.812500	-46.726246
1383.789062	-46.817673
1384.765625	-46.580997
1385.742188	-46.840221
1386.718750	-47.070911
1387.695312	-46.339146
1388.671875	-46.662292
1389.648438	-46.786713
1390.625000	-47.556324
1391.601562	-47.585640
1392.578125	-46.997520
1393.554688	-46.643818
1394.531250	-47.491016
1395.507812	-46.366798
1396.484375	-46.960674
1397.460938	-46.574177
1398.437500	-46.983524
1399.414062	-47.167606
1400.390625	-47.290894
1401.367188	-46.737328
1402.343750	-46.368744
1403.320312	-47.035500
1404.296875	-46.894245
1405.273438	-47.354294
1406.250000	-46.974838
1407.226562	-46.176891
1408.203125	-46.999100
1409.179688	-46.917797
1410.156250	-46.923599
1411.132812	-46.820293
1412.109375	-46.542324
1413.085938	-46.318863
1414.062500	-46.764515
1415.039062	-46.959805
1416.015625	-47.154106
1416.992188	-46.945015
1417.968750	-46.737236
1418.945312	-46.365124
1419.921875	-47.044518
1420.898438	-46.887413
1421.875000	-46.634266
1422.851562	-47.079098
1423.828125	-46.780590
1424.804688	-46.993351
1425.781250	-46.147625
1426.757812	-47.489151
1427.734375	-47.974148
1428.710938	-46.893803
1429.687500	-46.418888
1430.664062	-46.639355
1431.640625	-46.671684
1432.617188	-46.416553
1433.593750	-46.337864
1434.570312	-46.544407
1435.546875	-46.327103
1436.523438	-46.751049
1437.500000	-47.672325
1438.476562	-47.049007
1439.453125	-47.337971
1440.429688	-47.271294
1441.406250	-46.723679
1442.382812	-47.403351
1443.359375	-47.361023
1444.335938	-45.945709
1445.312500	-47.124084
1446.289062	-46.410172
1447.265625	-47.169247
1448.242188	-47.917007
1449.218750	-47.000416
1450.195312	-47.502781
1451.171875	-46.368629
1452.148438	-47.209961
1453.125000	-46.660851
1454.101562	-47.108936
1455.078125	-47.375286
1456.054688	-46.775818
1457.031250	-46.185703
1458.007812	-46.616779
1458.984375	-47.448750
1459.960938	-46.398163
1460.937500	-46.659042
1461.914062	-46.855206
1462.890625	-46.474979
1463.867188	-46.744537
1464.843750	-47.404594
1465.820312	-47.321762
1466.796875	-46.821022
1467.773438	-47.031662
1468.750000	-46.849434
1469.726562	-46.771542
1470.703125	-47.122478
1471.679688	-46.591145
1472.656250	-47.221939
1473.632812	-46.945560
1474.609375	-47.195843
1475.585938	-46.936314
1476.562500	-47.524761
1477.539062	-47.130634
1478.515625	-46.782192
1479.492188	-46.033047
1480.468750	-46.386978
1481.445312	-47.367271
1482.421875	-47.125645
1483.398438	-47.044640
1484.375000	-46.790245
1485.351562	-46.894657
1486.328125	-48.230206
1487.304688	-47.320259
1488.281250	-47.231709
1489.257812	-46.940346
1490.234375	-46.705925
1491.210938	-47.095806
1492.187500	-46.755936
1493.164062	-47.039539
1494.140625	-46.927490
1495.117188	-46.269634
1496.093750	-46.661709
1497.070312	-47.035736
1498.046875	-47.082928
1499.023438	-47.446243
1500.000000	-47.081749
1500.976562	-46.723881
1501.953125	-46.389881
1502.929688	-47.646221
1503.906250	-46.772087
1504.882812	-47.350300
1505.859375	-46.292450
1506.835938	-47.223289
1507.812500	-46.514366
1508.789062	-47.228561
1509.765625	-47.132744
1510.742188	-47.182980
1511.718750	-47.859524
1512.695312	-47.209457
1513.671875	-46.780685
1514.648438	-46.846294
1515.625000	-47.471134
1516.601562	-47.587814
1517.578125	-46.571228
1518.554688	-46.140110
1519.531250	-46.566601
1520.507812	-46.799419
1521.484375	-47.621700
1522.460938	-46.808792
1523.437500	-47.265709
1524.414062	-47.567757
1525.390625	-46.758446
1526.367188	-47.346527
1527.343750	-47.707905
1528.320312	-46.572338
1529.296875	-47.203621
1530.273438	-46.296177
1531.250000	-46.635002
1532.226562	-47.567432
1533.203125	-46.299076
1534.179688	-47.552723
1535.156250	-47.098461
1536.132812	-46.447186
1537.109375	-46.269299
1538.085938	-46.542435
1539.062500	-46.970764
1540.039062	-46.793926
1541.015625	-46.190144
1541.992188	-46.789654
1542.968750	-47.066898
1543.945312	-47.020584
1544.921875	-47.154060
1545.898438	-47.439053
1546.875000	-46.677242
1547.851562	-47.552841
1548.828125	-47.541428
1549.804688	-46.644089
1550.781250	-46.877907
1551.757812	-46.972191
1552.734375	-47.532932
1553.710938	-47.053612
1554.687500	-46.926048
1555.664062	-46.816311
1556.640625	-46.687191
1557.617188	-46.982197
1558.593750	-46.252678
1559.570312	-46.687107
1560.546875	-47.074780
1561.523438	-46.700130
1562.500000	-47.520542
1563.476562	-47.538086
1564.453125	-46.883251
1565.429688	-46.968395
1566.406250	-47.974152
1567.382812	-46.487823
1568.359375	-46.595177
1569.335938	-46.940235
1570.312500	-46.774754
1571.289062	-46.625893
1572.265625	-47.216515
1573.242188	-46.722458
1574.218750	-46.970371
1575.195312	-47.652443
1576.171875	-47.183327
1577.148438	-47.291794
1578.125000	-47.285488
1579.101562	-47.774982
1580.078125	-47.150169
1581.054688	-47.076782
1582.031250	-46.989124
1583.007812	-46.695229
1583.984375	-47.255493
1584.960938	-46.636192
1585.937500	-47.108643
1586.914062	-46.951283
1587.890625	-47.289780
1588.867188	-46.890289
1589.843750	-46.828934
1590.820312	-46.983212
1591.796875	-46.736172
1592.773438	-46.816605
1593.750000	-46.710011
1594.726562	-48.168064
1595.703125	-46.900612
1596.679688	-46.755383
1597.656250	-47.201191
1598.632812	-48.486679
1599.609375	-47.641109
1600.585938	-47.336159
1601.562500	-47.360386
1602.539062	-46.833771
1603.515625	-46.619324
1604.492188	-46.552151
1605.468750	-47.349186
1606.445312	-47.082958
1607.421875	-46.638599
1608.398438	-46.760853
1609.375000	-46.948338
1610.351562	-47.068771
1611.328125	-47.079197
1612.304688	-46.637295
1613.281250	-47.273758
1614.257812	-47.178505
1615.234375	-46.971233
1616.210938	-46.583363
1617.187500	-47.088562
1618.164062	-47.124950
1619.140625	-46.889370
1620.117188	-47.293938
1621.093750	-46.783066
1622.070312	-46.815025
1623.046875	-46.750919
1624.023438	-47.369549
1625.000000	-47.305553
1625.976562	-46.880447
1626.953125	-46.992805
1627.929688	-46.525131
1628.906250	-46.507717
1629.882812	-46.587978
1630.859375	-47.293243
1631.835938	-46.949512
1632.812500	-46.219810
1633.789062	-46.788513
1634.765625	-47.001766
1635.742188	-47.178265
1636.718750	-46.644974
1637.695312	-47.107738
1638.671875	-47.609234
1639.648438	-47.377190
1640.625000	-47.282890
1641.601562	-46.422668
1642.578125	-47.174187
1643.554688	-47.238125
1644.531250	-47.214298
1645.507812	-47.158756
1646.484375	-47.371376
1647.460938	-46.961597
1648.437500	-47.317078
1649.414062	-47.090572
1650.390625	-47.595654
1651.367188	-47.460018
1652.343750	-46.619118
1653.320312	-46.578743
1654.296875	-46.664452
1655.273438	-47.145901
1656.250000	-46.868317
1657.226562	-46.751297
1658.203125	-47.387566
1659.179688	-47.403400
1660.156250	-47.027996
1661.132812	-46.583843
1662.109375	-46.549301
1663.085938	-46.576797
1664.062500	-46.547295
1665.039062	-46.684944
1666.015625	-47.233421
1666.992188	-46.508137
1667.968750	-47.040241
1668.945312	-47.605145
1669.921875	-47.114674
1670.898438	-47.143448
1671.875000	-47.231152
1672.851562	-46.860992
1673.828125	-46.118683
1674.804688	-46.854782
1675.781250	-46.897877
1676.757812	-47.140842
1677.734375	-46.005905
1678.710938	-46.733662
1679.687500	-46.956657
1680.664062	-47.307735
1681.640625	-47.016750
1682.617188	-47.187382
1683.593750	-47.041477
1684.570312	-46.628605
1685.546875	-47.084892
1686.523438	-47.002766
1687.500000	-46.977119
1688.476562	-46.179535
1689.453125	-46.145424
1690.429688	-46.827839
1691.406250	-47.560600
1692.382812	-46.754467
1693.359375	-46.558823
1694.335938	-47.180103
1695.312500	-47.010605
1696.289062	-47.063213
1697.265625	-46.742382
1698.242188	-47.623333
1699.218750	-47.551682
1700.195312	-46.475681
1701.171875	-47.074100
1702.148438	-47.026131
1703.125000	-47.267323
1704.101562	-46.532375
1705.078125	-46.953133
1706.054688	-47.112762
1707.031250	-46.875313
1708.007812	-46.861351
1708.984375	-47.323444
1709.960938	-47.358505
1710.937500	-46.422001
1711.914062	-46.759197
1712.890625	-47.021133
1713.867188	-46.584988
1714.843750	-46.924294
1715.820312	-46.894737
1716.796875	-47.125214
1717.773438	-46.876400
1718.750000	-46.911465
1719.726562	-47.163265
1720.703125	-47.600555
1721.679688	-47.010460
1722.656250	-47.000076
1723.632812	-46.753143
1724.609375	-47.325783
1725.585938	-47.330887
1726.562500	-47.020809
1727.539062	-47.185295
1728.515625	-46.647121
1729.492188	-46.429722
1730.468750	-46.666290
1731.445312	-47.135357
1732.421875	-47.611172
1733.398438	-47.990662
1734.375000	-46.928623
1735.351562	-47.339069
1736.328125	-47.351589
1737.304688	-46.259556
1738.281250	-46.527927
1739.257812	-46.107460
1740.234375	-47.083946
1741.210938	-47.770306
1742.187500	-46.678017
1743.164062	-47.012753
1744.140625	-47.421352
1745.117188	-47.198277
1746.093750	-46.740341
1747.070312	-46.905273
1748.046875	-47.899109
1749.023438	-46.319019
1750.000000	-46.969963
1750.976562	-46.960861
1751.953125	-46.841206
1752.929688	-46.273865
1753.906250	-46.136364
1754.882812	-47.205318
1755.859375	-46.450512
1756.835938	-46.959049
1757.812500	-46.821777
1758.789062	-46.817081
1759.765625	-46.065159
1760.742188	-47.155949
1761.718750	-46.606777
1762.695312	-46.692284
1763.671875	-47.023609
1764.648438	-46.343239
1765.625000	-46.740498
1766.601562	-46.586758
1767.578125	-46.946026
1768.554688	-47.589424
1769.531250	-46.253857
1770.507812	-46.587929
1771.484375	-46.973438
1772.460938	-46.813568
1773.437500	-46.573315
1774.414062	-46.882793
1775.390625	-47.441601
1776.367188	-46.651684
1777.343750	-46.886005
1778.320312	-47.660934
1779.296875	-47.492306
1780.273438	-46.891163
1781.250000	-47.584675
1782.226562	-47.052525
1783.203125	-47.306854
1784.179688	-47.260128
1785.156250	-47.133266
1786.132812	-46.209499
1787.109375	-45.402058
1788.085938	-47.253365
1789.062500	-47.236759
1790.039062	-46.755539
1791.015625	-47.435650
1791.992188	-47.726116
1792.968750	-46.935032
1793.945312	-46.667793
1794.921875	-47.221012
1795.898438	-47.126270
1796.875000	-46.932125
1797.851562	-46.769608
1798.828125	-46.935120
1799.804688	-47.384953
1800.781250	-47.002213
1801.757812	-46.954716
1802.734375	-46.799412
1803.710938	-46.001144
1804.687500	-46.928001
1805.664062	-46.804508
1806.640625	-47.588791
1807.617188	-46.243584
1808.593750	-47.297325
1809.570312	-46.306259
1810.546875	-47.227997
1811.523438	-47.067139
1812.500000	-46.535191
1813.476562	-47.302631
1814.453125	-47.270824
1815.429688	-47.543846
1816.406250	-46.813656
1817.382812	-47.502419
1818.359375	-46.824844
1819.335938	-47.245121
1820.312500	-46.884377
1821.289062	-47.209579
1822.265625	-46.749168
1823.242188	-45.885063
1824.218750	-47.320240
1825.195312	-47.292183
1826.171875	-47.067131
1827.148438	-47.156620
1828.125000	-47.288647
1829.101562	-46.868153
1830.078125	-47.966820
1831.054688	-47.581635
1832.031250	-47.797352
1833.007812	-46.805580
1833.984375	-46.371811
1834.960938	-46.642929
1835.937500	-46.210495
1836.914062	-46.847343
1837.890625	-46.724014
1838.867188	-47.158047
1839.843750	-46.481339
1840.820312	-46.440891
1841.796875	-47.188206
1842.773438	-46.572247
1843.750000	-46.994965
1844.726562	-46.781063
1845.703125	-46.144646
1846.679688	-46.382233
1847.656250	-46.088928
1848.632812	-46.895908
1849.609375	-46.991253
1850.585938	-46.616901
1851.562500	-46.826313
1852.539062	-47.083008
1853.515625	-46.607094
1854.492188	-46.864231
1855.468750	-46.924179
1856.445312	-46.348339
1857.421875	-47.077183
1858.398438	-47.100441
1859.375000	-47.062881
1860.351562	-46.698475
1861.328125	-47.073837
1862.304688	-47.154171
1863.281250	-47.504124
1864.257812	-46.837891
1865.234375	-46.462097
1866.210938	-47.019978
1867.187500	-47.365414
1868.164062	-47.065666
1869.140625	-46.976189
1870.117188	-46.655910
1871.093750	-46.740105
1872.070312	-46.709782
1873.046875	-45.922539
1874.023438	-47.207619
1875.000000	-47.063171
1875.976562	-46.524250
1876.953125	-46.679737
1877.929688	-47.374916
1878.906250	-46.856522
1879.882812	-47.136383
1880.859375	-47.691025
1881.835938	-47.434162
1882.812500	-47.093391
1883.789062	-47.021843
1884.765625	-47.085041
1885.742188	-47.838722
1886.718750	-47.300426
1887.695312	-46.218864
1888.671875	-46.807163
1889.648438	-46.756233
1890.625000	-47.509563
1891.601562	-46.797394
1892.578125	-46.724075
1893.554688	-46.866383
1894.531250	-46.903481
1895.507812	-47.382156
1896.484375	-46.916836
1897.460938	-46.398975
1898.437500	-45.954659
1899.414062	-46.994553
1900.390625	-46.528542
1901.367188	-46.289173
1902.343750	-46.054577
1903.320312	-47.206364
1904.296875	-46.788311
1905.273438	-47.270260
1906.250000	-47.602024
1907.226562	-46.996227
1908.203125	-46.794155
1909.179688	-47.137295
1910.156250	-47.411205
1911.132812	-47.811378
1912.109375	-47.225658
1913.085938	-47.028694
1914.062500	-47.231091
1915.039062	-46.319618
1916.015625	-47.335892
1916.992188	-46.831093
1917.968750	-46.979107
1918.945312	-47.613125
1919.921875	-46.547115
1920.898438	-46.086750
1921.875000	-46.536980
1922.851562	-47.567265
1923.828125	-47.301224
1924.804688	-46.727261
1925.781250	-47.153824
1926.757812	-46.345451
1927.734375	-46.608368
1928.710938	-47.763054
1929.687500	-47.297947
1930.664062	-47.702652
1931.640625	-46.566196
1932.617188	-46.810604
1933.593750	-46.410027
1934.570312	-47.333088
1935.546875	-47.380295
1936.523438	-46.044308
1937.500000	-47.273792
1938.476562	-46.854500
1939.453125	-47.021324
1940.429688	-46.948868
1941.406250	-46.637959
1942.382812	-47.291794
1943.359375	-47.022274
1944.335938	-47.008671
1945.312500	-46.789314
1946.289062	-46.200867
1947.265625	-46.570850
1948.242188	-46.736347
1949.218750	-46.654354
1950.195312	-46.952564
1951.171875	-46.928104
1952.148438	-46.658100
1953.125000	-46.610104
1954.101562	-46.700432
1955.078125	-46.859627
1956.054688	-46.519802
1957.031250	-46.382626
1958.007812	-46.579075
1958.984375	-46.723145
1959.960938	-46.171665
1960.937500	-46.333069
1961.914062	-46.551304
1962.890625	-47.176811
1963.867188	-46.377579
1964.843750	-46.228329
1965.820312	-46.648064
1966.796875	-46.518085
1967.773438	-46.658787
1968.750000	-47.229855
1969.726562	-47.890293
1970.703125	-47.300110
1971.679688	-46.423676
1972.656250	-46.602840
1973.632812	-47.329189
1974.609375	-47.000130
1975.585938	-46.366230
1976.562500	-47.276752
1977.539062	-46.603992
1978.515625	-46.494053
1979.492188	-46.238667
1980.468750	-47.254025
1981.445312	-47.439262
1982.421875	-47.016308
1983.398438	-46.590073
1984.375000	-46.718632
1985.351562	-47.125706
1986.328125	-47.406700
1987.304688	-47.646690
1988.281250	-46.821720
1989.257812	-46.816505
1990.234375	-47.669151
1991.210938	-46.907845
1992.187500	-46.741875
1993.164062	-46.337158
1994.140625	-46.833855
1995.117188	-46.459141
1996.093750	-46.236153
1997.070312	-46.463875
1998.046875	-46.792328
1999.023438	-46.669952
2000.000000	-48.007015
2000.976562	-47.223251
2001.953125	-47.487476
2002.929688	-46.722000
2003.906250	-46.958435
2004.882812	-47.180367
2005.859375	-46.711407
2006.835938	-46.183918
2007.812500	-45.886215
2008.789062	-46.640255
2009.765625	-47.271778
2010.742188	-47.257832
2011.718750	-47.262772
2012.695312	-46.861118
2013.671875	-47.658695
2014.648438	-46.977684
2015.625000	-46.769367
2016.601562	-47.460625
2017.578125	-46.388504
2018.554688	-46.253784
2019.531250	-46.664894
2020.507812	-47.458332
2021.484375	-47.166103
2022.460938	-47.157520
2023.437500	-46.277908
2024.414062	-46.356823
2025.390625	-46.684193
2026.367188	-46.319275
2027.343750	-46.694920
2028.320312	-46.977596
2029.296875	-48.053474
2030.273438	-46.826180
2031.250000	-46.958038
2032.226562	-46.649757
2033.203125	-46.983360
2034.179688	-45.937267
2035.156250	-46.961609
2036.132812	-46.887817
2037.109375	-47.084831
2038.085938	-47.198330
2039.062500	-46.856510
2040.039062	-46.925945
2041.015625	-46.243568
2041.992188	-46.444523
2042.968750	-46.954548
2043.945312	-46.993439
2044.921875	-47.454697
2045.898438	-47.005707
2046.875000	-47.523079
2047.851562	-47.164444
2048.828125	-46.838081
2049.804688	-46.245506
2050.781250	-46.183403
2051.757812	-46.889210
2052.734375	-47.193409
2053.710938	-46.864964
2054.687500	-47.313015
2055.664062	-46.869476
2056.640625	-46.972122
2057.617188	-47.073742
2058.593750	-47.070099
2059.570312	-46.434902
2060.546875	-46.886486
2061.523438	-46.604691
2062.500000	-47.371914
2063.476562	-46.635910
2064.453125	-47.631516
2065.429688	-46.837769
2066.406250	-46.568375
2067.382812	-46.953999
2068.359375	-45.901169
2069.335938	-46.175720
2070.312500	-46.735657
2071.289062	-47.255291
2072.265625	-47.333279
2073.242188	-46.827744
2074.218750	-47.778423
2075.195312	-47.466835
2076.171875	-47.742680
2077.148438	-47.405685
2078.125000	-46.502735
2079.101562	-47.136562
2080.078125	-46.489502
2081.054688	-46.659954
2082.031250	-46.470959
2083.007812	-46.683006
2083.984375	-46.957737
2084.960938	-47.642426
2085.937500	-46.962654
2086.914062	-46.861866
2087.890625	-46.914211
2088.867188	-46.816734
2089.843750	-47.030289
2090.820312	-46.189766
2091.796875	-47.014805
2092.773438	-46.955772
2093.750000	-46.890053
2094.726562	-46.934666
2095.703125	-47.527004
2096.679688	-46.992947
2097.656250	-47.512684
2098.632812	-47.172039
2099.609375	-46.960915
2100.585938	-46.939156
2101.562500	-46.664680
2102.539062	-46.417187
2103.515625	-47.340485
2104.492188	-47.712959
2105.468750	-46.274319
2106.445312	-47.420841
2107.421875	-47.844166
2108.398438	-46.917358
2109.375000	-46.989460
2110.351562	-46.481758
2111.328125	-47.309532
2112.304688	-47.889957
2113.281250	-46.531662
2114.257812	-47.251358
2115.234375	-46.767551
2116.210938	-46.334023
2117.187500	-46.864159
2118.164062	-46.409557
2119.140625	-47.559998
2120.117188	-47.115849
2121.093750	-47.146061
2122.070312	-47.411289
2123.046875	-47.364243
2124.023438	-46.469124
2125.000000	-47.057487
2125.976562	-46.546017
2126.953125	-46.735439
2127.929688	-46.691772
2128.906250	-46.633537
2129.882812	-47.023346
2130.859375	-47.014820
2131.835938	-46.613544
2132.812500	-47.523228
2133.789062	-46.676601
2134.765625	-46.715771
2135.742188	-47.232487
2136.718750	-46.733124
2137.695312	-47.309864
2138.671875	-47.230736
2139.648438	-47.568176
2140.625000	-47.291103
2141.601562	-46.212776
2142.578125	-46.958157
2143.554688	-46.775009
2144.531250	-47.080982
2145.507812	-47.519360
2146.484375	-47.318188
2147.460938	-47.181141
2148.437500	-46.755314
2149.414062	-46.681122
2150.390625	-47.203884
2151.367188	-46.611507
2152.343750	-46.115093
2153.320312	-46.702168
2154.296875	-47.264004
2155.273438	-46.921860
2156.250000	-46.671677
2157.226562	-46.880589
2158.203125	-47.011677
2159.179688	-47.432285
2160.156250	-46.606277
2161.132812	-47.468769
2162.109375	-47.170650
2163.085938	-46.392776
2164.062500	-46.374874
2165.039062	-46.720215
2166.015625	-46.861580
2166.992188	-46.542957
2167.968750	-47.288410
2168.945312	-47.640450
2169.921875	-47.671654
2170.898438	-47.118797
2171.875000	-46.930096
2172.851562	-47.328819
2173.828125	-47.087101
2174.804688	-47.199070
2175.781250	-47.086498
2176.757812	-46.974449
2177.734375	-47.363823
2178.710938	-46.790676
2179.687500	-46.376904
2180.664062	-46.638947
2181.640625	-46.315723
2182.617188	-47.172672
2183.593750	-47.156761
2184.570312	-46.581654
2185.546875	-47.349598
2186.523438	-46.801926
2187.500000	-47.015854
2188.476562	-46.482098
2189.453125	-46.699566
2190.429688	-46.952660
2191.406250	-46.817780
2192.382812	-46.452438
2193.359375	-47.544403
2194.335938	-46.459938
2195.312500	-47.911263
2196.289062	-47.320217
2197.265625	-47.485962
2198.242188	-46.722065
2199.218750	-46.690468
2200.195312	-47.391937
2201.171875	-46.797863
2202.148438	-47.315983
2203.125000	-46.549084
2204.101562	-46.213959
2205.078125	-46.613407
2206.054688	-47.140759
2207.031250	-46.894043
2208.007812	-46.695988
2208.984375	-47.707611
2209.960938	-47.242184
2210.937500	-47.537800
2211.914062	-47.426304
2212.890625	-46.424107
2213.867188	-46.387379
2214.843750	-46.583374
2215.820312	-46.350048
2216.796875	-46.537243
2217.773438	-47.420258
2218.750000	-47.083549
2219.726562	-47.296787
2220.703125	-47.182426
2221.679688	-46.279644
2222.656250	-46.528374
2223.632812	-47.388554
2224.609375	-46.177460
2225.585938	-46.602142
2226.562500	-47.339275
2227.539062	-46.978672
2228.515625	-46.414352
2229.492188	-46.659458
2230.468750	-47.290855
2231.445312	-47.374840
2232.421875	-46.888905
2233.398438	-47.997128
2234.375000	-46.613472
2235.351562	-47.749565
2236.328125	-48.279606
2237.304688	-47.439495
2238.281250	-46.906742
2239.257812	-46.664028
2240.234375	-46.666676
2241.210938	-46.285439
2242.187500	-46.711338
2243.164062	-46.445026
2244.140625	-46.720203
2245.117188	-47.014549
2246.093750	-47.694572
2247.070312	-46.704639
2248.046875	-47.400249
2249.023438	-47.158821
2250.000000	-47.391125
2250.976562	-46.941261
2251.953125	-47.480316
2252.929688	-47.688179
2253.906250	-46.971989
2254.882812	-46.880756
2255.859375	-47.013660
2256.835938	-46.731964
2257.812500	-47.390266
2258.789062	-47.627750
2259.765625	-47.777718
2260.742188	-45.921078
2261.718750	-46.366718
2262.695312	-46.315380
2263.671875	-45.649532
2264.648438	-46.756992
2265.625000	-47.499233
2266.601562	-46.319290
2267.578125	-46.319180
2268.554688	-46.278511
2269.531250	-46.727501
2270.507812	-46.539848
2271.484375	-46.836582
2272.460938	-46.992916
2273.437500	-47.758198
2274.414062	-46.953049
2275.390625	-46.632969
2276.367188	-47.397907
2277.343750	-46.515816
2278.320312	-47.042061
2279.296875	-47.283054
2280.273438	-46.811314
2281.250000	-47.294872
2282.226562	-47.101662
2283.203125	-46.559002
2284.179688	-47.319046
2285.156250	-46.329449
2286.132812	-47.118408
2287.109375	-47.332760
2288.085938	-47.081108
2289.062500	-47.698845
2290.039062	-46.585480
2291.015625	-46.855453
2291.992188	-46.427822
2292.968750	-46.617157
2293.945312	-47.193336
2294.921875	-47.082703
2295.898438	-47.032738
2296.875000	-47.069763
2297.851562	-46.478931
2298.828125	-46.804504
2299.804688	-47.097343
2300.781250	-47.150318
2301.757812	-47.394249
2302.734375	-47.610363
2303.710938	-46.306664
2304.687500	-47.332951
2305.664062	-48.005352
2306.640625	-47.060177
2307.617188	-46.939548
2308.593750	-47.776955
2309.570312	-46.486473
2310.546875	-47.118698
2311.523438	-47.309879
2312.500000	-45.881584
2313.476562	-45.771736
2314.453125	-47.019279
2315.429688	-46.690277
2316.406250	-47.147167
2317.382812	-47.601078
2318.359375	-47.011101
2319.335938	-47.261639
2320.312500	-46.636696
2321.289062	-47.016190
2322.265625	-47.085091
2323.242188	-46.899601
2324.218750	-46.939873
2325.195312	-46.250938
2326.171875	-47.645447
2327.148438	-47.057285
2328.125000	-46.515800
2329.101562	-46.591164
2330.078125	-46.241554
2331.054688	-46.279205
2332.031250	-46.243515
2333.007812	-47.124672
2333.984375	-47.285778
2334.960938	-46.624725
2335.937500	-46.325317
2336.914062	-46.615124
2337.890625	-48.403202
2338.867188	-47.597183
2339.843750	-46.834412
2340.820312	-46.650959
2341.796875	-46.951687
2342.773438	-47.129879
2343.750000	-47.045528
2344.726562	-46.947552
2345.703125	-46.485867
2346.679688	-46.736370
2347.656250	-46.853546
2348.632812	-46.977646
2349.609375	-46.529484
2350.585938	-46.831890
2351.562500	-47.383339
2352.539062	-46.595467
2353.515625	-47.117310
2354.492188	-47.101650
2355.468750	-47.301281
2356.445312	-46.557590
2357.421875	-46.792488
2358.398438	-47.111835
2359.375000	-47.341030
2360.351562	-47.108624
2361.328125	-46.273632
2362.304688	-46.250309
2363.281250	-47.275898
2364.257812	-46.515236
2365.234375	-46.692871
2366.210938	-47.395157
2367.187500	-46.735603
2368.164062	-46.676430
2369.140625	-46.571880
2370.117188	-47.082870
2371.093750	-45.793846
2372.070312	-46.679222
2373.046875	-47.310760
2374.023438	-46.942554
2375.000000	-46.979889
2375.976562	-46.947178
2376.953125	-47.557285
2377.929688	-47.515182
2378.906250	-47.327721
2379.882812	-47.568314
2380.859375	-47.163967
2381.835938	-47.442032
2382.812500	-46.703892
2383.789062	-47.286110
2384.765625	-46.686104
2385.742188	-47.439587
2386.718750	-46.826256
2387.695312	-46.399632
2388.671875	-47.168922
2389.648438	-47.298977
2390.625000	-46.716164
2391.601562	-47.626431
2392.578125	-47.622616
2393.554688	-46.892223
2394.531250	-46.572090
2395.507812	-47.285053
2396.484375	-46.770878
2397.460938	-47.504566
2398.437500	-46.873398
2399.414062	-47.212036
2400.390625	-47.222908
2401.367188	-47.248508
2402.343750	-46.995251
2403.320312	-47.203094
2404.296875	-46.158936
2405.273438	-46.811111
2406.250000	-46.823429
2407.226562	-46.873531
2408.203125	-47.208675
2409.179688	-46.604591
2410.156250	-46.485134
2411.132812	-46.394657
2412.109375	-46.977570
2413.085938	-46.690994
2414.062500	-47.408661
2415.039062	-46.889019
2416.015625	-47.333458
2416.992188	-46.748672
2417.968750	-47.638115
2418.945312	-47.235744
2419.921875	-46.729523
2420.898438	-47.260433
2421.875000	-47.352051
2422.851562	-47.777248
2423.828125	-47.683262
2424.804688	-47.510357
2425.781250	-47.195503
2426.757812	-46.592426
2427.734375	-47.205772
2428.710938	-46.691891
2429.687500	-46.995407
2430.664062	-46.835041
2431.640625	-46.632778
2432.617188	-46.859982
2433.593750	-46.662106
2434.570312	-46.350086
2435.546875	-47.813427
2436.523438	-47.505943
2437.500000	-47.409943
2438.476562	-47.202152
2439.453125	-46.760105
2440.429688	-46.890556
2441.406250	-47.618134
2442.382812	-47.557007
2443.359375	-47.443199
2444.335938	-46.938919
2445.312500	-46.790367
2446.289062	-47.033726
2447.265625	-46.625114
2448.242188	-46.763012
2449.218750	-46.026627
2450.195312	-46.771332
2451.171875	-46.446980
2452.148438	-46.752663
2453.125000	-47.012993
2454.101562	-47.045971
2455.078125	-47.233654
2456.054688	-47.235771
2457.031250	-47.923000
2458.007812	-47.248680
2458.984375	-46.686035
2459.960938	-46.814720
2460.937500	-46.526402
2461.914062	-46.452953
2462.890625	-47.477882
2463.867188	-47.110027
2464.843750	-46.237587
2465.820312	-47.040428
2466.796875	-46.916683
2467.773438	-46.526993
2468.750000	-46.258793
2469.726562	-47.049404
2470.703125	-46.905762
2471.679688	-46.971222
2472.656250	-47.214802
2473.632812	-47.146130
2474.609375	-46.818768
2475.585938	-47.403442
2476.562500	-47.197502
2477.539062	-46.802414
2478.515625	-46.762810
2479.492188	-46.616863
2480.468750	-47.094391
2481.445312	-46.663006
2482.421875	-46.668602
2483.398438	-46.936199
2484.375000	-46.370453
2485.351562	-46.276451
2486.328125	-46.827396
2487.304688	-47.242184
2488.281250	-46.993511
2489.257812	-46.647579
2490.234375	-46.586761
2491.210938	-47.059345
2492.187500	-47.290318
2493.164062	-47.437222
2494.140625	-46.687286
2495.117188	-46.806290
2496.093750	-46.580032
2497.070312	-46.872681
2498.046875	-46.880714
2499.023438	-46.940731
2500.000000	-46.941235
2500.976562	-47.260998
2501.953125	-46.404232
2502.929688	-47.392780
2503.906250	-46.869785
2504.882812	-46.741875
2505.859375	-46.473591
2506.835938	-46.955788
2507.812500	-46.516064
2508.789062	-46.554790
2509.765625	-46.964329
2510.742188	-46.466972
2511.718750	-47.418533
2512.695312	-46.867756
2513.671875	-46.859711
2514.648438	-46.597095
2515.625000	-46.566406
2516.601562	-46.746456
2517.578125	-47.217110
2518.554688	-46.508724
2519.531250	-47.264385
2520.507812	-46.870457
2521.484375	-47.638695
2522.460938	-46.912888
2523.437500	-46.899559
2524.414062	-47.208981
2525.390625	-47.672817
2526.367188	-47.229733
2527.343750	-47.220539
2528.320312	-46.008400
2529.296875	-46.301991
2530.273438	-47.407047
2531.250000	-46.905956
2532.226562	-46.617279
2533.203125	-46.633869
2534.179688	-46.372559
2535.156250	-46.884304
2536.132812	-47.267620
2537.109375	-47.171329
2538.085938	-46.488007
2539.062500	-46.913876
2540.039062	-47.378864
2541.015625	-47.239597
2541.992188	-48.006180
2542.968750	-46.918423
2543.945312	-46.693699
2544.921875	-47.516022
2545.898438	-46.293255
2546.875000	-46.467743
2547.851562	-47.502392
2548.828125	-47.249393
2549.804688	-47.282284
2550.781250	-46.400600
2551.757812	-46.843502
2552.734375	-46.767818
2553.710938	-48.310020
2554.687500	-46.846119
2555.664062	-46.514565
2556.640625	-46.793438
2557.617188	-45.930077
2558.593750	-47.436447
2559.570312	-46.825592
2560.546875	-47.317772
2561.523438	-46.867085
2562.500000	-46.612396
2563.476562	-47.448341
2564.453125	-46.929203
2565.429688	-46.761581
2566.406250	-46.658909
2567.382812	-47.739594
2568.359375	-46.342892
2569.335938	-46.494877
2570.312500	-46.812122
2571.289062	-47.442150
2572.265625	-47.798492
2573.242188	-46.784912
2574.218750	-46.250771
2575.195312	-47.142586
2576.171875	-47.727993
2577.148438	-46.899952
2578.125000	-46.505527
2579.101562	-46.570766
2580.078125	-46.165070
2581.054688	-46.885193
2582.031250	-47.146339
2583.007812	-46.842728
2583.984375	-47.200512
2584.960938	-46.454098
2585.937500	-46.773457
2586.914062	-46.714424
2587.890625	-46.580624
2588.867188	-46.856232
2589.843750	-47.391918
2590.820312	-47.450634
2591.796875	-47.448097
2592.773438	-46.750210
2593.750000	-46.459354
2594.726562	-46.545612
2595.703125	-47.102161
2596.679688	-47.693962
2597.656250	-46.714882
2598.632812	-46.609787
2599.609375	-46.860802
2600.585938	-46.551910
2601.562500	-46.184563
2602.539062	-46.803936
2603.515625	-47.312889
2604.492188	-46.664570
2605.468750	-46.510578
2606.445312	-46.393246
2607.421875	-47.013363
2608.398438	-46.764446
2609.375000	-47.201557
2610.351562	-47.483154
2611.328125	-47.061314
2612.304688	-47.930294
2613.281250	-46.969955
2614.257812	-47.571621
2615.234375	-47.084251
2616.210938	-46.412449
2617.187500	-46.536572
2618.164062	-47.093540
2619.140625	-46.949566
2620.117188	-46.961792
2621.093750	-47.058357
2622.070312	-46.507702
2623.046875	-46.800087
2624.023438	-47.810760
2625.000000	-47.678856
2625.976562	-47.734428
2626.953125	-46.924088
2627.929688	-46.579849
2628.906250	-46.456783
2629.882812	-46.559448
2630.859375	-46.492863
2631.835938	-47.148037
2632.812500	-47.293034
2633.789062	-46.979965
2634.765625	-46.774151
2635.742188	-47.331829
2636.718750	-46.935081
2637.695312	-46.903870
2638.671875	-46.894928
2639.648438	-46.981434
2640.625000	-46.955055
2641.601562	-47.399876
2642.578125	-47.278950
2643.554688	-46.951687
2644.531250	-46.670589
2645.507812	-47.269714
2646.484375	-47.117802
2647.460938	-46.230522
2648.437500	-46.407097
2649.414062	-47.116264
2650.390625	-47.185734
2651.367188	-47.134808
2652.343750	-46.586765
2653.320312	-46.506519
2654.296875	-46.165958
2655.273438	-46.628941
2656.250000	-46.866970
2657.226562	-46.522888
2658.203125	-47.062500
2659.179688	-47.145218
2660.156250	-46.611942
2661.132812	-46.709312
2662.109375	-46.527428
2663.085938	-47.125134
2664.062500	-47.222061
2665.039062	-47.353966
2666.015625	-47.172142
2666.992188	-46.879108
2667.968750	-46.161701
2668.945312	-45.991989
2669.921875	-46.479904
2670.898438	-46.567791
2671.875000	-47.876297
2672.851562	-47.234241
2673.828125	-47.097927
2674.804688	-46.714661
2675.781250	-46.885849
2676.757812	-47.089462
2677.734375	-46.651379
2678.710938	-46.862011
2679.687500	-46.225590
2680.664062	-47.518997
2681.640625	-46.851826
2682.617188	-47.482224
2683.593750	-47.519115
2684.570312	-47.772991
2685.546875	-48.211239
2686.523438	-47.738716
2687.500000	-47.538910
2688.476562	-46.530941
2689.453125	-47.534420
2690.429688	-46.783047
2691.406250	-47.071846
2692.382812	-46.429031
2693.359375	-47.034538
2694.335938	-47.109623
2695.312500	-47.088737
2696.289062	-46.241455
2697.265625	-45.860798
2698.242188	-46.557358
2699.218750	-47.050415
2700.195312	-46.488163
2701.171875	-46.925690
2702.148438	-46.321453
2703.125000	-46.641125
2704.101562	-46.776287
2705.078125	-46.919327
2706.054688	-46.462193
2707.031250	-46.911442
2708.007812	-46.865967
2708.984375	-47.316837
2709.960938	-47.759232
2710.937500	-47.894524
2711.914062	-46.309467
2712.890625	-47.188110
2713.867188	-46.486984
2714.843750	-46.855934
2715.820312	-47.074604
2716.796875	-47.210922
2717.773438	-47.145687
2718.750000	-46.673031
2719.726562	-46.974457
2720.703125	-46.910141
2721.679688	-46.568024
2722.656250	-46.605869
2723.632812	-46.325287
2724.609375	-47.148285
2725.585938	-46.769283
2726.562500	-46.429047
2727.539062	-47.343987
2728.515625	-47.752998
2729.492188	-47.281902
2730.468750	-46.862267
2731.445312	-47.104919
2732.421875	-46.595688
2733.398438	-46.908630
2734.375000	-47.125008
2735.351562	-46.526257
2736.328125	-46.724384
2737.304688	-47.647419
2738.281250	-47.391644
2739.257812	-47.224022
2740.234375	-46.367886
2741.210938	-47.268009
2742.187500	-47.370037
2743.164062	-47.916035
2744.140625	-47.071304
2745.117188	-47.666363
2746.093750	-47.141598
2747.070312	-47.473213
2748.046875	-46.924046
2749.023438	-47.197086
2750.000000	-46.873550
2750.976562	-46.981228
2751.953125	-46.880989
2752.929688	-47.255016
2753.906250	-47.084473
2754.882812	-47.032310
2755.859375	-46.782856
2756.835938	-47.210728
2757.812500	-47.240078
2758.789062	-47.498154
2759.765625	-47.422039
2760.742188	-47.550407
2761.718750	-46.516254
2762.695312	-48.079159
2763.671875	-47.264587
2764.648438	-46.907608
2765.625000	-46.737720
2766.601562	-47.454994
2767.578125	-48.012264
2768.554688	-46.734711
2769.531250	-46.876308
2770.507812	-46.302845
2771.484375	-46.956219
2772.460938	-47.297047
2773.437500	-47.544640
2774.414062	-46.175014
2775.390625	-47.642944
2776.367188	-46.757381
2777.343750	-47.588100
2778.320312	-47.198959
2779.296875	-47.118896
2780.273438	-46.764519
2781.250000	-47.736286
2782.226562	-47.580967
2783.203125	-47.055489
2784.179688	-46.514702
2785.156250	-45.735302
2786.132812	-47.534851
2787.109375	-46.843735
2788.085938	-47.053299
2789.062500	-46.687943
2790.039062	-46.091331
2791.015625	-47.309444
2791.992188	-47.216461
2792.968750	-47.088963
2793.945312	-46.798248
2794.921875	-47.028507
2795.898438	-46.990250
2796.875000	-47.200565
2797.851562	-46.316990
2798.828125	-47.580170
2799.804688	-46.999481
2800.781250	-46.869762
2801.757812	-47.261826
2802.734375	-47.226303
2803.710938	-46.688824
2804.687500	-46.915970
2805.664062	-47.493965
2806.640625	-47.502224
2807.617188	-46.887932
2808.593750	-47.076397
2809.570312	-47.172180
2810.546875	-46.422623
2811.523438	-46.247272
2812.500000	-46.290405
2813.476562	-47.188725
2814.453125	-46.370758
2815.429688	-47.530552
2816.406250	-46.522671
2817.382812	-47.480110
2818.359375	-47.386086
2819.335938	-47.633781
2820.312500	-46.981609
2821.289062	-46.052197
2822.265625	-46.684811
2823.242188	-47.382072
2824.218750	-46.285156
2825.195312	-47.060558
2826.171875	-47.635544
2827.148438	-46.539516
2828.125000	-47.220387
2829.101562	-46.830048
2830.078125	-47.772350
2831.054688	-47.270798
2832.031250	-47.370800
2833.007812	-46.869194
2833.984375	-47.361668
2834.960938	-47.089893
2835.937500	-46.368927
2836.914062	-47.218739
2837.890625	-45.632240
2838.867188	-46.679012
2839.843750	-47.443283
2840.820312	-47.662365
2841.796875	-46.673115
2842.773438	-46.941799
2843.750000	-47.774967
2844.726562	-47.353931
2845.703125	-47.514622
2846.679688	-47.065731
2847.656250	-47.081963
2848.632812	-47.308990
2849.609375	-47.807434
2850.585938	-46.537788
2851.562500	-46.256138
2852.539062	-46.054615
2853.515625	-46.792477
2854.492188	-46.446461
2855.468750	-46.551666
2856.445312	-46.588272
2857.421875	-46.624393
2858.398438	-46.565857
2859.375000	-46.584099
2860.351562	-45.701359
2861.328125	-46.547630
2862.304688	-47.291416
2863.281250	-46.363701
2864.257812	-47.152321
2865.234375	-46.323002
2866.210938	-47.309727
2867.187500	-47.582642
2868.164062	-47.152615
2869.140625	-46.671551
2870.117188	-47.089554
2871.093750	-48.023411
2872.070312	-46.515320
2873.046875	-47.647839
2874.023438	-46.460850
2875.000000	-46.785061
2875.976562	-47.083241
2876.953125	-46.407745
2877.929688	-47.150005
2878.906250	-46.887077
2879.882812	-47.538990
2880.859375	-47.171165
2881.835938	-47.022686
2882.812500	-46.749401
2883.789062	-46.946545
2884.765625	-46.610924
2885.742188	-46.833927
2886.718750	-46.362957
2887.695312	-47.206383
2888.671875	-46.617069
2889.648438	-46.434513
2890.625000	-46.604462
2891.601562	-47.209061
2892.578125	-46.663868
2893.554688	-45.923611
2894.531250	-47.033669
2895.507812	-46.827465
2896.484375	-47.762714
2897.460938	-46.933769
2898.437500	-47.205349
2899.414062	-47.642395
2900.390625	-46.787292
2901.367188	-46.423668
2902.343750	-46.654892
2903.320312	-46.814354
2904.296875	-46.387054
2905.273438	-46.595783
2906.250000	-46.329899
2907.226562	-46.448639
2908.203125	-46.829411
2909.179688	-46.557560
2910.156250	-46.289169
2911.132812	-46.464752
2912.109375	-46.798237
2913.085938	-46.855221
2914.062500	-46.674221
2915.039062	-46.756882
2916.015625	-47.339680
2916.992188	-47.085747
2917.968750	-46.591217
2918.945312	-47.035343
2919.921875	-47.468365
2920.898438	-47.077255
2921.875000	-47.331608
2922.851562	-47.344120
2923.828125	-46.910835
2924.804688	-46.711464
2925.781250	-46.636581
2926.757812	-46.636505
2927.734375	-47.158043
2928.710938	-46.909016
2929.687500	-47.307579
2930.664062	-47.310490
2931.640625	-46.632164
2932.617188	-47.746632
2933.593750	-47.419189
2934.570312	-47.686253
2935.546875	-46.105656
2936.523438	-46.235886
2937.500000	-47.109245
2938.476562	-46.686092
2939.453125	-46.708782
2940.429688	-47.147911
2941.406250	-46.812603
2942.382812	-47.132969
2943.359375	-46.521832
2944.335938	-45.552521
2945.312500	-47.283985
2946.289062	-46.559387
2947.265625	-47.512909
2948.242188	-47.287090
2949.218750	-46.949314
2950.195312	-47.157364
2951.171875	-46.738434
2952.148438	-47.447598
2953.125000	-47.582253
2954.101562	-47.765255
2955.078125	-47.423409
2956.054688	-46.746620
2957.031250	-46.699966
2958.007812	-47.169586
2958.984375	-46.354427
2959.960938	-47.186665
2960.937500	-47.322178
2961.914062	-46.429165
2962.890625	-47.643658
2963.867188	-47.781261
2964.843750	-46.914722
2965.820312	-47.056934
2966.796875	-47.097923
2967.773438	-47.127995
2968.750000	-47.292118
2969.726562	-46.700188
2970.703125	-46.699825
2971.679688	-45.774162
2972.656250	-46.699345
2973.632812	-46.543980
2974.609375	-46.965527
2975.585938	-46.952518
2976.562500	-47.553696
2977.539062	-47.064884
2978.515625	-47.840477
2979.492188	-46.678894
2980.468750	-46.531288
2981.445312	-46.498558
2982.421875	-45.968254
2983.398438	-46.424183
2984.375000	-46.913895
2985.351562	-46.898647
2986.328125	-46.791050
2987.304688	-46.966599
2988.281250	-47.122017
2989.257812	-47.676590
2990.234375	-47.016743
2991.210938	-46.459492
2992.187500	-46.502331
2993.164062	-46.665226
2994.140625	-46.911446
2995.117188	-46.775120
2996.093750	-47.623192
2997.070312	-46.946388
2998.046875	-46.838146
2999.023438	-47.181625
3000.000000	-47.242512
3000.976562	-47.222687
3001.953125	-46.947292
3002.929688	-47.387096
3003.906250	-47.348671
3004.882812	-46.940769
3005.859375	-47.643227
3006.835938	-46.917274
3007.812500	-47.033550
3008.789062	-47.125381
3009.765625	-46.038219
3010.742188	-47.094765
3011.718750	-47.329269
3012.695312	-46.507137
3013.671875	-47.433788
3014.648438	-47.207493
3015.625000	-47.550308
3016.601562	-47.121670
3017.578125	-47.133682
3018.554688	-46.754963
3019.531250	-47.044849
3020.507812	-46.367188
3021.484375	-46.108616
3022.460938	-46.142349
3023.437500	-47.902046
3024.414062	-46.798710
3025.390625	-46.590115
3026.367188	-46.443405
3027.343750	-46.923077
3028.320312	-46.772511
3029.296875	-46.819756
3030.273438	-46.974255
3031.250000	-46.786987
3032.226562	-47.039341
3033.203125	-46.655983
3034.179688	-46.919117
3035.156250	-47.246555
3036.132812	-47.354015
3037.109375	-46.623714
3038.085938	-47.412483
3039.062500	-46.793903
3040.039062	-46.028423
3041.015625	-46.663906
3041.992188	-46.157124
3042.968750	-47.758369
3043.945312	-47.305202
3044.921875	-46.811554
3045.898438	-46.523773
3046.875000	-46.315460
3047.851562	-47.338776
3048.828125	-46.354866
3049.804688	-46.827702
3050.781250	-46.739422
3051.757812	-46.816025
3052.734375	-46.929314
3053.710938	-46.881313
3054.687500	-47.189285
3055.664062	-46.824875
3056.640625	-47.403419
3057.617188	-46.492756
3058.593750	-46.536018
3059.570312	-46.623730
3060.546875	-46.968185
3061.523438	-46.921219
3062.500000	-47.383595
3063.476562	-46.936089
3064.453125	-46.997929
3065.429688	-46.433800
3066.406250	-47.192806
3067.382812	-46.519642
3068.359375	-46.714123
3069.335938	-47.018093
3070.312500	-47.008579
3071.289062	-47.642792
3072.265625	-47.130413
3073.242188	-47.681023
3074.218750	-47.202667
3075.195312	-46.752838
3076.171875	-47.478958
3077.148438	-48.053631
3078.125000	-47.976913
3079.101562	-47.409580
3080.078125	-46.537968
3081.054688	-46.223392
3082.031250	-46.890656
3083.007812	-46.280369
3083.984375	-46.207489
3084.960938	-47.503391
3085.937500	-47.581139
3086.914062	-46.666420
3087.890625	-46.977180
3088.867188	-46.790817
3089.843750	-47.946999
3090.820312	-47.603065
3091.796875	-47.447319
3092.773438	-47.293980
3093.750000	-46.816292
3094.726562	-46.810135
3095.703125	-46.550022
3096.679688	-46.075104
3097.656250	-46.838036
3098.632812	-46.535923
3099.609375	-46.822128
3100.585938	-46.590000
3101.562500	-47.483780
3102.539062	-46.779667
3103.515625	-46.178612
3104.492188	-46.604118
3105.468750	-46.787857
3106.445312	-46.618950
3107.421875	-46.760986
3108.398438	-46.274559
3109.375000	-46.953476
3110.351562	-47.510727
3111.328125	-47.419857
3112.304688	-47.568378
3113.281250	-46.430004
3114.257812	-46.571102
3115.234375	-47.295734
3116.210938	-47.087200
3117.187500	-46.811790
3118.164062	-47.719482
3119.140625	-46.843227
3120.117188	-46.691898
3121.093750	-47.201092
3122.070312	-46.958706
3123.046875	-46.583008
3124.023438	-46.994099
3125.000000	-46.619015
3125.976562	-47.405067
3126.953125	-46.708958
3127.929688	-47.417107
3128.906250	-46.836025
3129.882812	-46.907082
3130.859375	-46.527061
3131.835938	-46.188995
3132.812500	-47.095257
3133.789062	-47.599010
3134.765625	-47.244907
3135.742188	-47.203434
3136.718750	-47.381523
3137.695312	-46.943130
3138.671875	-46.987164
3139.648438	-47.148712
3140.625000	-47.052830
3141.601562	-46.594082
3142.578125	-46.434834
3143.554688	-47.229992
3144.531250	-46.963345
3145.507812	-46.669075
3146.484375	-46.960384
3147.460938	-47.174671
3148.437500	-46.567669
3149.414062	-47.043808
3150.390625	-47.076042
3151.367188	-46.949905
3152.343750	-46.833229
3153.320312	-47.608231
3154.296875	-47.468632
3155.273438	-47.117580
3156.250000	-47.070450
3157.226562	-47.427505
3158.203125	-47.291637
3159.179688	-46.723675
3160.156250	-46.981224
3161.132812	-46.951191
3162.109375	-46.681164
3163.085938	-46.484482
3164.062500	-47.065170
3165.039062	-46.839306
3166.015625	-46.757107
3166.992188	-46.562855
3167.968750	-46.690720
3168.945312	-47.111019
3169.921875	-47.577145
3170.898438	-46.979790
3171.875000	-45.751572
3172.851562	-46.984219
3173.828125	-47.061207
3174.804688	-46.328667
3175.781250	-46.587631
3176.757812	-47.076096
3177.734375	-46.683041
3178.710938	-46.562939
3179.687500	-47.241692
3180.664062	-48.005814
3181.640625	-46.894741
3182.617188	-46.899754
3183.593750	-47.170437
3184.570312	-46.254368
3185.546875	-46.645443
3186.523438	-47.048996
3187.500000	-46.628754
3188.476562	-46.266060
3189.453125	-46.536194
3190.429688	-46.882492
3191.406250	-46.251755
3192.382812	-47.008209
3193.359375	-47.726521
3194.335938	-46.693516
3195.312500	-46.921875
3196.289062	-47.166309
3197.265625	-47.185692
3198.242188	-46.274342
3199.218750	-46.669365
3200.195312	-47.308998
3201.171875	-46.704433
3202.148438	-47.077831
3203.125000	-47.829853
3204.101562	-46.567829
3205.078125	-46.741436
3206.054688	-47.153221
3207.031250	-46.363018
3208.007812	-46.463486
3208.984375	-46.595715
3209.960938	-45.993038
3210.937500	-47.737080
3211.914062	-47.025253
3212.890625	-46.556580
3213.867188	-46.815155
3214.843750	-47.445843
3215.820312	-46.870914
3216.796875	-47.274509
3217.773438	-47.067947
3218.750000	-47.164066
3219.726562	-46.352177
3220.703125	-46.971275
3221.679688	-46.215607
3222.656250	-46.840832
3223.632812	-46.691757
3224.609375	-47.677666
3225.585938	-47.014725
3226.562500	-47.137077
3227.539062	-46.924278
3228.515625	-46.238831
3229.492188	-46.749352
3230.468750	-47.419666
3231.445312	-46.755146
3232.421875	-47.092579
3233.398438	-46.554417
3234.375000	-46.475250
3235.351562	-47.176426
3236.328125	-47.199959
3237.304688	-46.830048
3238.281250	-46.515938
3239.257812	-47.199467
3240.234375	-46.118824
3241.210938	-46.989029
3242.187500	-46.575390
3243.164062	-46.890598
3244.140625	-46.441917
3245.117188	-46.521893
3246.093750	-46.958637
3247.070312	-46.614964
3248.046875	-46.677273
3249.023438	-46.158875
3250.000000	-47.142471
3250.976562	-46.847977
3251.953125	-47.144588
3252.929688	-46.509663
3253.906250	-47.282925
3254.882812	-46.594154
3255.859375	-47.602718
3256.835938	-46.548145
3257.812500	-46.499901
3258.789062	-46.987171
3259.765625	-47.484901
3260.742188	-47.744129
3261.718750	-46.671432
3262.695312	-47.287521
3263.671875	-46.519352
3264.648438	-46.281208
3265.625000	-46.962265
3266.601562	-47.197674
3267.578125	-47.580627
3268.554688	-46.411114
3269.531250	-46.313515
3270.507812	-46.976288
3271.484375	-47.276764
3272.460938	-47.149544
3273.437500	-47.110397
3274.414062	-46.993679
3275.390625	-46.979797
3276.367188	-47.180855
3277.343750	-46.311806
3278.320312	-46.925728
3279.296875	-46.532772
3280.273438	-47.054916
3281.250000	-47.375629
3282.226562	-46.894951
3283.203125	-47.070652
3284.179688	-46.463928
3285.156250	-47.210018
3286.132812	-47.192604
3287.109375	-46.695530
3288.085938	-47.175644
3289.062500	-47.436337
3290.039062	-46.554291
3291.015625	-46.842583
3291.992188	-46.640987
3292.968750	-46.551456
3293.945312	-46.921646
3294.921875	-45.947533
3295.898438	-47.659508
3296.875000	-46.782528
3297.851562	-46.509018
3298.828125	-46.962124
3299.804688	-47.284718
3300.781250	-46.911457
3301.757812	-46.296612
3302.734375	-46.377934
3303.710938	-47.198635
3304.687500	-46.577538
3305.664062	-46.972588
3306.640625	-47.510319
3307.617188	-47.010971
3308.593750	-46.676147
3309.570312	-46.567417
3310.546875	-46.197632
3311.523438	-46.985378
3312.500000	-46.903534
3313.476562	-46.169930
3314.453125	-46.144131
3315.429688	-47.319214
3316.406250	-46.816120
3317.382812	-46.939590
3318.359375	-47.180992
3319.335938	-47.646980
3320.312500	-47.151875
3321.289062	-45.822411
3322.265625	-47.151123
3323.242188	-46.543926
3324.218750	-46.444294
3325.195312	-47.157532
3326.171875	-46.737457
3327.148438	-46.942997
3328.125000	-46.705799
3329.101562	-45.985153
3330.078125	-47.255032
3331.054688	-46.675865
3332.031250	-47.370609
3333.007812	-46.506058
3333.984375	-47.178822
3334.960938	-46.589405
3335.937500	-46.499092
3336.914062	-47.453144
3337.890625	-46.647354
3338.867188	-46.907570
3339.843750	-47.200699
3340.820312	-46.816372
3341.796875	-47.525730
3342.773438	-46.670071
3343.750000	-47.361721
3344.726562	-47.472858
3345.703125	-46.692242
3346.679688	-47.512276
3347.656250	-47.023457
3348.632812	-46.108635
3349.609375	-46.825623
3350.585938	-46.121437
3351.562500	-47.068085
3352.539062	-46.623600
3353.515625	-46.956783
3354.492188	-46.620689
3355.468750	-46.972073
3356.445312	-47.227360
3357.421875	-46.698231
3358.398438	-47.412731
3359.375000	-47.484734
3360.351562	-47.549854
3361.328125	-47.094490
3362.304688	-46.793144
3363.281250	-46.462208
3364.257812	-47.097927
3365.234375	-46.321266
3366.210938	-46.217258
3367.187500	-47.046486
3368.164062	-47.514999
3369.140625	-47.441158
3370.117188	-46.821346
3371.093750	-46.728790
3372.070312	-46.656250
3373.046875	-47.066120
3374.023438	-46.142384
3375.000000	-46.489529
3375.976562	-46.669537
3376.953125	-46.953007
3377.929688	-47.011036
3378.906250	-46.582973
3379.882812	-47.157326
3380.859375	-47.238960
3381.835938	-47.296230
3382.812500	-46.798832
3383.789062	-47.528481
3384.765625	-47.346474
3385.742188	-46.843781
3386.718750	-47.498066
3387.695312	-46.607353
3388.671875	-46.236198
3389.648438	-46.729519
3390.625000	-47.030880
3391.601562	-46.998055
3392.578125	-46.853741
3393.554688	-46.841866
3394.531250	-46.136738
3395.507812	-46.886219
3396.484375	-46.489548
3397.460938	-46.497826
3398.437500	-46.355461
3399.414062	-46.519634
3400.390625	-46.427498
3401.367188	-46.724094
3402.343750	-46.919437
3403.320312	-46.567345
3404.296875	-46.836102
3405.273438	-46.913952
3406.250000	-47.079861
3407.226562	-46.293007
3408.203125	-47.290745
3409.179688	-46.904991
3410.156250	-47.183487
3411.132812	-47.088276
3412.109375	-47.242783
3413.085938	-46.557400
3414.062500	-46.482334
3415.039062	-46.432686
3416.015625	-46.817142
3416.992188	-47.789616
3417.968750	-46.992760
3418.945312	-46.587208
3419.921875	-46.922657
3420.898438	-46.386406
3421.875000	-46.783649
3422.851562	-46.629623
3423.828125	-47.089336
3424.804688	-46.451942
3425.781250	-47.242691
3426.757812	-47.496109
3427.734375	-46.731403
3428.710938	-47.244843
3429.687500	-46.767651
3430.664062	-46.492268
3431.640625	-47.374493
3432.617188	-46.846722
3433.593750	-47.102390
3434.570312	-46.866570
3435.546875	-46.932598
3436.523438	-46.472065
3437.500000	-47.074677
3438.476562	-47.342915
3439.453125	-47.452595
3440.429688	-47.371506
3441.406250	-46.982315
3442.382812	-46.849110
3443.359375	-46.982948
3444.335938	-47.002731
3445.312500	-47.301155
3446.289062	-47.179802
3447.265625	-46.550861
3448.242188	-46.716999
3449.218750	-47.024952
3450.195312	-46.516033
3451.171875	-46.799999
3452.148438	-47.090961
3453.125000	-46.868034
3454.101562	-46.965530
3455.078125	-47.312290
3456.054688	-46.877308
3457.031250	-46.331833
3458.007812	-47.273510
3458.984375	-46.546585
3459.960938	-47.066338
3460.937500	-46.967186
3461.914062	-46.176601
3462.890625	-46.641079
3463.867188	-47.338696
3464.843750	-47.590328
3465.820312	-47.120457
3466.796875	-46.341167
3467.773438	-47.273220
3468.750000	-46.753662
3469.726562	-47.084713
3470.703125	-46.881783
3471.679688	-47.542126
3472.656250	-46.659763
3473.632812	-46.874634
3474.609375	-47.086224
3475.585938	-47.422569
3476.562500	-47.422466
3477.539062	-47.270069
3478.515625	-47.015121
3479.492188	-47.492638
3480.468750	-47.316307
3481.445312	-47.170631
3482.421875	-46.669010
3483.398438	-46.859989
3484.375000	-46.531208
3485.351562	-45.938747
3486.328125	-47.337498
3487.304688	-46.919186
3488.281250	-46.831532
3489.257812	-47.188000
3490.234375	-46.768604
3491.210938	-47.425812
3492.187500	-47.232605
3493.164062	-47.026394
3494.140625	-47.530228
3495.117188	-47.218124
3496.093750	-46.738380
3497.070312	-46.840103
3498.046875	-46.755066
3499.023438	-46.681080
3500.000000	-48.070145
3500.976562	-46.957451
3501.953125	-46.739868
3502.929688	-47.395447
3503.906250	-47.202644
3504.882812	-46.664394
3505.859375	-46.968380
3506.835938	-46.252518
3507.812500	-46.832897
3508.789062	-47.164383
3509.765625	-47.234974
3510.742188	-46.978283
3511.718750	-46.832047
3512.695312	-47.681549
3513.671875	-47.039261
3514.648438	-46.840237
3515.625000	-47.253841
3516.601562	-47.313507
3517.578125	-46.537464
3518.554688	-46.401779
3519.531250	-47.139290
3520.507812	-47.546909
3521.484375	-47.013622
3522.460938	-47.019947
3523.437500	-46.331932
3524.414062	-46.774517
3525.390625	-47.159286
3526.367188	-47.453178
3527.343750	-46.198067
3528.320312	-47.656574
3529.296875	-47.512871
3530.273438	-46.469059
3531.250000	-46.326763
3532.226562	-46.329014
3533.203125	-46.751064
3534.179688	-47.596806
3535.156250	-46.698360
3536.132812	-47.012920
3537.109375	-47.268066
3538.085938	-47.627502
3539.062500	-46.827435
3540.039062	-47.015522
3541.015625	-46.816853
3541.992188	-46.715721
3542.968750	-46.572941
3543.945312	-46.522099
3544.921875	-46.505367
3545.898438	-47.280239
3546.875000	-47.331478
3547.851562	-47.161018
3548.828125	-47.923931
3549.804688	-47.416256
3550.781250	-47.036312
3551.757812	-47.488945
3552.734375	-46.940697
3553.710938	-46.497532
3554.687500	-46.888268
3555.664062	-47.110466
3556.640625	-46.585533
3557.617188	-46.651169
3558.593750	-46.311623
3559.570312	-46.551857
3560.546875	-46.577152
3561.523438	-46.705212
3562.500000	-46.674347
3563.476562	-46.896748
3564.453125	-47.301205
3565.429688	-46.545338
3566.406250	-46.931168
3567.382812	-47.216816
3568.359375	-47.447971
3569.335938	-47.990398
3570.312500	-47.206913
3571.289062	-47.334221
3572.265625	-46.569088
3573.242188	-47.235573
3574.218750	-46.878113
3575.195312	-46.657429
3576.171875	-47.170063
3577.148438	-46.314232
3578.125000	-46.745770
3579.101562	-46.977398
3580.078125	-46.621765
3581.054688	-46.816338
3582.031250	-46.793827
3583.007812	-46.439568
3583.984375	-46.407410
3584.960938	-47.108593
3585.937500	-47.232388
3586.914062	-47.008907
3587.890625	-46.230350
3588.867188	-47.194790
3589.843750	-46.537796
3590.820312	-46.322403
3591.796875	-47.101448
3592.773438	-47.359646
3593.750000	-47.066021
3594.726562	-46.992046
3595.703125	-46.741238
3596.679688	-46.948433
3597.656250	-47.163616
3598.632812	-47.017986
3599.609375	-46.868725
3600.585938	-46.710575
3601.562500	-46.530304
3602.539062	-46.866146
3603.515625	-47.083431
3604.492188	-47.338634
3605.468750	-46.378445
3606.445312	-46.501411
3607.421875	-46.612934
3608.398438	-46.383884
3609.375000	-47.207165
3610.351562	-46.905571
3611.328125	-46.128738
3612.304688	-46.848545
3613.281250	-46.491955
3614.257812	-47.449665
3615.234375	-46.604160
3616.210938	-46.994087
3617.187500	-47.045910
3618.164062	-47.262253
3619.140625	-47.006813
3620.117188	-47.222881
3621.093750	-47.074799
3622.070312	-47.079144
3623.046875	-46.199585
3624.023438	-46.698109
3625.000000	-46.635288
3625.976562	-47.528069
3626.953125	-46.736118
3627.929688	-47.242737
3628.906250	-46.578903
3629.882812	-46.659481
3630.859375	-46.520535
3631.835938	-47.770416
3632.812500	-47.263981
3633.789062	-47.194664
3634.765625	-46.579113
3635.742188	-47.052914
3636.718750	-46.713409
3637.695312	-47.684124
3638.671875	-46.132751
3639.648438	-46.916965
3640.625000	-46.787117
3641.601562	-46.134148
3642.578125	-47.381260
3643.554688	-46.629402
3644.531250	-46.888058
3645.507812	-47.038307
3646.484375	-47.108433
3647.460938	-46.839344
3648.437500	-47.763691
3649.414062	-47.325855
3650.390625	-47.187649
3651.367188	-47.055836
3652.343750	-47.004730
3653.320312	-46.955280
3654.296875	-47.613560
3655.273438	-46.388012
3656.250000	-46.838680
3657.226562	-46.473637
3658.203125	-46.166733
3659.179688	-46.611225
3660.156250	-46.825703
3661.132812	-46.442940
3662.109375	-46.746178
3663.085938	-47.047752
3664.062500	-46.818394
3665.039062	-46.569393
3666.015625	-46.695805
3666.992188	-46.651382
3667.968750	-46.786697
3668.945312	-46.423519
3669.921875	-47.252495
3670.898438	-46.860790
3671.875000	-46.632206
3672.851562	-47.329365
3673.828125	-46.627056
3674.804688	-46.726681
3675.781250	-46.805912
3676.757812	-46.860542
3677.734375	-46.692356
3678.710938	-46.669888
3679.687500	-46.919403
3680.664062	-46.594864
3681.640625	-46.848316
3682.617188	-47.275036
3683.593750	-47.822830
3684.570312	-47.483017
3685.546875	-46.911140
3686.523438	-46.947197
3687.500000	-46.519409
3688.476562	-47.360298
3689.453125	-47.320312
3690.429688	-45.834263
3691.406250	-46.945831
3692.382812	-46.964676
3693.359375	-47.221771
3694.335938	-46.582203
3695.312500	-46.708366
3696.289062	-47.569729
3697.265625	-47.262978
3698.242188	-46.670422
3699.218750	-46.719528
3700.195312	-46.595676
3701.171875	-47.007389
3702.148438	-46.271408
3703.125000	-47.088749
3704.101562	-46.467808
3705.078125	-47.534477
3706.054688	-47.607498
3707.031250	-47.291649
3708.007812	-47.345936
3708.984375	-47.032261
3709.960938	-47.140869
3710.937500	-47.178551
3711.914062	-47.130394
3712.890625	-47.054497
3713.867188	-47.525551
3714.843750	-46.878960
3715.820312	-47.607349
3716.796875	-47.060486
3717.773438	-47.300922
3718.750000	-47.427383
3719.726562	-46.174286
3720.703125	-46.489960
3721.679688	-47.411175
3722.656250	-46.422340
3723.632812	-45.977074
3724.609375	-46.865414
3725.585938	-46.150234
3726.562500	-46.743061
3727.539062	-47.163754
3728.515625	-47.096218
3729.492188	-46.450878
3730.468750	-46.740395
3731.445312	-46.850231
3732.421875	-47.536697
3733.398438	-46.931274
3734.375000	-47.109783
3735.351562	-47.338299
3736.328125	-47.318409
3737.304688	-47.076767
3738.281250	-46.952698
3739.257812	-46.418381
3740.234375	-46.931625
3741.210938	-47.739655
3742.187500	-46.876587
3743.164062	-46.822868
3744.140625	-46.598759
3745.117188	-46.739738
3746.093750	-46.903931
3747.070312	-46.767441
3748.046875	-47.436321
3749.023438	-47.200512
3750.000000	-47.346172
3750.976562	-46.875397
3751.953125	-46.584686
3752.929688	-46.264591
3753.906250	-46.509701
3754.882812	-46.399998
3755.859375	-47.347065
3756.835938	-46.577595
3757.812500	-46.793949
3758.789062	-46.920494
3759.765625	-46.986843
3760.742188	-46.148811
3761.718750	-46.653049
3762.695312	-47.175259
3763.671875	-47.573448
3764.648438	-46.290874
3765.625000	-46.439487
3766.601562	-46.755848
3767.578125	-46.535542
3768.554688	-47.145878
3769.531250	-47.254711
3770.507812	-46.859344
3771.484375	-46.562580
3772.460938	-47.078571
3773.437500	-46.614853
3774.414062	-46.254128
3775.390625	-47.059391
3776.367188	-47.790810
3777.343750	-47.113373
3778.320312	-46.210541
3779.296875	-46.060932
3780.273438	-47.520069
3781.250000	-46.446461
3782.226562	-46.483353
3783.203125	-47.000015
3784.179688	-46.524975
3785.156250	-46.657291
3786.132812	-46.653183
3787.109375	-46.276615
3788.085938	-46.416286
3789.062500	-46.567993
3790.039062	-46.570011
3791.015625	-47.263271
3791.992188	-47.142948
3792.968750	-46.911949
3793.945312	-47.040710
3794.921875	-47.050243
3795.898438	-47.946629
3796.875000	-47.149643
3797.851562	-47.157047
3798.828125	-47.249104
3799.804688	-47.048580
3800.781250	-46.847542
3801.757812	-46.988216
3802.734375	-48.045830
3803.710938	-46.592495
3804.687500	-46.241463
3805.664062	-46.547543
3806.640625	-47.065212
3807.617188	-47.379612
3808.593750	-47.288399
3809.570312	-46.398197
3810.546875	-46.809196
3811.523438	-46.822441
3812.500000	-47.050026
3813.476562	-46.989616
3814.453125	-47.294460
3815.429688	-46.961079
3816.406250	-46.294430
3817.382812	-47.253334
3818.359375	-47.807526
3819.335938	-47.591309
3820.312500	-47.971428
3821.289062	-47.000202
3822.265625	-47.235954
3823.242188	-47.022953
3824.218750	-46.959625
3825.195312	-45.965992
3826.171875	-46.759399
3827.148438	-47.127457
3828.125000	-47.177368
3829.101562	-47.204762
3830.078125	-46.853561
3831.054688	-46.533001
3832.031250	-46.144035
3833.007812	-46.780968
3833.984375	-46.893757
3834.960938	-45.931221
3835.937500	-47.033974
3836.914062	-47.070171
3837.890625	-46.136524
3838.867188	-47.284924
3839.843750	-47.433773
3840.820312	-47.550598
3841.796875	-47.404148
3842.773438	-46.684071
3843.750000	-47.088902
3844.726562	-46.349361
3845.703125	-47.184460
3846.679688	-46.453144
3847.656250	-45.899925
3848.632812	-47.101223
3849.609375	-47.314590
3850.585938	-47.357616
3851.562500	-46.966286
3852.539062	-46.747253
3853.515625	-46.932022
3854.492188	-46.499104
3855.468750	-47.525139
3856.445312	-47.109833
3857.421875	-47.228092
3858.398438	-46.951382
3859.375000	-46.317730
3860.351562	-47.011333
3861.328125	-46.843273
3862.304688	-47.071442
3863.281250	-46.438931
3864.257812	-46.185238
3865.234375	-46.662979
3866.210938	-47.183903
3867.187500	-46.813808
3868.164062	-46.510288
3869.140625	-46.871975
3870.117188	-46.900112
3871.093750	-48.051361
3872.070312	-46.921780
3873.046875	-47.519344
3874.023438	-47.231384
3875.000000	-47.037083
3875.976562	-46.777943
3876.953125	-46.752403
3877.929688	-46.845863
3878.906250	-47.131020
3879.882812	-46.416561
3880.859375	-46.810772
3881.835938	-46.784531
3882.812500	-47.409084
3883.789062	-46.802311
3884.765625	-46.872681
3885.742188	-47.297100
3886.718750	-46.572392
3887.695312	-45.914360
3888.671875	-46.567047
3889.648438	-47.241291
3890.625000	-46.726414
3891.601562	-47.227863
3892.578125	-46.675243
3893.554688	-46.235126
3894.531250	-47.183136
3895.507812	-46.311230
3896.484375	-46.567745
3897.460938	-46.717274
3898.437500	-46.327667
3899.414062	-46.727257
3900.390625	-47.066784
3901.367188	-46.438168
3902.343750	-46.377609
3903.320312	-46.698906
3904.296875	-47.650928
3905.273438	-47.647461
3906.250000	-46.864807
3907.226562	-47.079399
3908.203125	-46.711254
3909.179688	-46.835930
3910.156250	-46.644390
3911.132812	-46.634151
3912.109375	-46.846859
3913.085938	-46.915329
3914.062500	-47.290562
3915.039062	-46.789272
3916.015625	-47.516304
3916.992188	-47.080872
3917.968750	-47.006855
3918.945312	-47.071907
3919.921875	-47.949455
3920.898438	-47.668289
3921.875000	-46.556950
3922.851562	-46.300304
3923.828125	-46.632523
3924.804688	-47.037518
3925.781250	-46.693001
3926.757812	-46.791004
3927.734375	-46.483261
3928.710938	-47.017693
3929.687500	-46.724560
3930.664062	-46.361103
3931.640625	-47.483269
3932.617188	-46.815376
3933.593750	-47.301735
3934.570312	-47.349583
3935.546875	-46.532665
3936.523438	-48.017765
3937.500000	-46.804688
3938.476562	-46.725876
3939.453125	-47.069633
3940.429688	-47.054565
3941.406250	-46.984962
3942.382812	-46.799599
3943.359375	-46.665730
3944.335938	-47.345448
3945.312500	-46.408821
3946.289062	-46.422504
3947.265625	-46.653950
3948.242188	-47.025597
3949.218750	-46.952728
3950.195312	-46.383797
3951.171875	-47.351952
3952.148438	-47.470863
3953.125000	-46.839043
3954.101562	-46.693230
3955.078125	-46.307709
3956.054688	-47.416981
3957.031250	-47.064953
3958.007812	-46.097767
3958.984375	-46.408192
3959.960938	-46.864479
3960.937500	-47.465374
3961.914062	-46.823616
3962.890625	-47.129116
3963.867188	-47.150852
3964.843750	-47.395290
3965.820312	-47.082756
3966.796875	-47.711224
3967.773438	-47.126904
3968.750000	-47.153549
3969.726562	-47.112225
3970.703125	-46.690395
3971.679688	-47.537075
3972.656250	-47.525623
3973.632812	-46.694340
3974.609375	-46.806252
3975.585938	-46.830750
3976.562500	-46.857681
3977.539062	-47.327801
3978.515625	-47.768585
3979.492188	-46.833141
3980.468750	-46.035839
3981.445312	-46.992058
3982.421875	-47.183029
3983.398438	-46.177879
3984.375000	-46.751934
3985.351562	-46.946331
3986.328125	-46.695381
3987.304688	-47.298313
3988.281250	-47.034935
3989.257812	-46.317673
3990.234375	-47.182064
3991.210938	-46.623573
3992.187500	-47.486652
3993.164062	-46.712666
3994.140625	-47.037884
3995.117188	-46.853039
3996.093750	-47.101692
3997.070312	-46.494167
3998.046875	-46.745609
3999.023438	-46.806225
4000.000000	-47.546490
4000.976562	-47.311459
4001.953125	-46.639328
4002.929688	-46.941833
4003.906250	-47.119244
4004.882812	-46.880508
4005.859375	-46.770580
4006.835938	-47.101372
4007.812500	-47.152618
4008.789062	-47.299164
4009.765625	-47.319828
4010.742188	-46.264584
4011.718750	-47.456593
4012.695312	-46.595417
4013.671875	-47.188484
4014.648438	-47.242474
4015.625000	-47.214893
4016.601562	-47.137352
4017.578125	-46.261246
4018.554688	-47.095840
4019.531250	-47.542118
4020.507812	-46.978615
4021.484375	-46.761383
4022.460938	-46.504616
4023.437500	-47.092110
4024.414062	-47.105007
4025.390625	-47.171902
4026.367188	-46.924114
4027.343750	-47.537170
4028.320312	-47.249378
4029.296875	-47.136395
4030.273438	-47.185154
4031.250000	-46.885513
4032.226562	-46.627937
4033.203125	-46.825413
4034.179688	-47.092537
4035.156250	-46.692757
4036.132812	-46.577301
4037.109375	-45.981552
4038.085938	-47.249168
4039.062500	-47.288864
4040.039062	-47.829712
4041.015625	-46.611248
4041.992188	-47.693478
4042.968750	-46.942646
4043.945312	-47.270096
4044.921875	-46.400360
4045.898438	-47.367126
4046.875000	-46.903591
4047.851562	-46.655548
4048.828125	-47.468216
4049.804688	-46.817078
4050.781250	-46.967503
4051.757812	-47.194099
4052.734375	-47.491436
4053.710938	-46.867798
4054.687500	-46.742214
4055.664062	-46.638630
4056.640625	-46.678238
4057.617188	-47.042156
4058.593750	-46.891716
4059.570312	-47.144291
4060.546875	-46.347439
4061.523438	-46.967728
4062.500000	-46.369347
4063.476562	-46.942413
4064.453125	-46.626141
4065.429688	-46.791454
4066.406250	-46.288334
4067.382812	-47.359867
4068.359375	-46.333138
4069.335938	-47.222961
4070.312500	-47.069942
4071.289062	-46.973812
4072.265625	-46.580574
4073.242188	-47.012867
4074.218750	-47.250786
4075.195312	-46.432514
4076.171875	-46.512341
4077.148438	-47.234535
4078.125000	-48.161144
4079.101562	-47.433075
4080.078125	-46.469570
4081.054688	-46.963959
4082.031250	-46.646233
4083.007812	-46.198875
4083.984375	-47.060104
4084.960938	-46.739941
4085.937500	-46.407215
4086.914062	-47.551952
4087.890625	-46.935699
4088.867188	-46.777306
4089.843750	-47.190075
4090.820312	-46.659966
4091.796875	-46.162537
4092.773438	-46.547005
4093.750000	-47.360973
4094.726562	-46.286568
4095.703125	-46.751865
4096.679688	-47.147846
4097.656250	-46.729805
4098.632812	-46.943752
4099.609375	-47.117188
4100.585938	-47.564091
4101.562500	-47.319485
4102.539062	-46.601357
4103.515625	-46.304470
4104.492188	-46.773781
4105.468750	-47.420120
4106.445312	-47.520412
4107.421875	-46.594261
4108.398438	-46.789726
4109.375000	-46.777229
4110.351562	-47.030312
4111.328125	-46.878933
4112.304688	-47.376411
4113.281250	-47.330524
4114.257812	-46.935001
4115.234375	-46.908016
4116.210938	-46.580795
4117.187500	-47.213108
4118.164062	-46.978485
4119.140625	-46.460766
4120.117188	-47.447544
4121.093750	-46.637196
4122.070312	-47.511971
4123.046875	-46.936260
4124.023438	-46.696419
4125.000000	-46.995956
4125.976562	-46.828995
4126.953125	-47.391342
4127.929688	-47.063686
4128.906250	-47.102501
4129.882812	-47.396896
4130.859375	-47.040340
4131.835938	-46.089737
4132.812500	-47.091263
4133.789062	-46.845356
4134.765625	-47.698753
4135.742188	-47.170971
4136.718750	-47.116024
4137.695312	-47.178200
4138.671875	-46.811897
4139.648438	-46.583290
4140.625000	-46.519657
4141.601562	-46.619354
4142.578125	-46.700638
4143.554688	-47.094948
4144.531250	-46.828854
4145.507812	-46.281048
4146.484375	-46.734325
4147.460938	-47.092415
4148.437500	-46.546787
4149.414062	-47.225266
4150.390625	-47.590893
4151.367188	-46.667717
4152.343750	-47.542927
4153.320312	-47.732201
4154.296875	-46.694927
4155.273438	-46.924282
4156.250000	-47.459705
4157.226562	-46.982643
4158.203125	-46.007729
4159.179688	-46.316933
4160.156250	-46.846127
4161.132812	-46.737263
4162.109375	-46.824871
4163.085938	-47.298275
4164.062500	-46.608322
4165.039062	-46.507385
4166.015625	-46.400093
4166.992188	-47.142414
4167.968750	-46.245270
4168.945312	-46.753330
4169.921875	-46.788559
4170.898438	-46.403839
4171.875000	-46.424225
4172.851562	-46.864899
4173.828125	-46.905766
4174.804688	-47.280838
4175.781250	-46.995453
4176.757812	-47.028698
4177.734375	-46.648216
4178.710938	-46.821526
4179.687500	-46.770508
4180.664062	-46.671917
4181.640625	-46.523388
4182.617188	-47.120735
4183.593750	-46.989189
4184.570312	-47.224503
4185.546875	-47.275452
4186.523438	-47.099602
4187.500000	-47.285908
4188.476562	-46.868992
4189.453125	-46.642887
4190.429688	-47.719166
4191.406250	-46.679447
4192.382812	-46.686462
4193.359375	-46.335918
4194.335938	-47.205101
4195.312500	-46.841686
4196.289062	-46.998013
4197.265625	-47.255688
4198.242188	-47.116142
4199.218750	-46.940701
4200.195312	-47.026783
4201.171875	-46.587017
4202.148438	-47.064941
4203.125000	-47.141323
4204.101562	-46.868969
4205.078125	-47.130333
4206.054688	-46.582077
4207.031250	-46.740704
4208.007812	-47.462349
4208.984375	-47.282703
4209.960938	-47.042923
4210.937500	-46.926186
4211.914062	-46.764496
4212.890625	-47.110176
4213.867188	-46.292942
4214.843750	-46.906769
4215.820312	-46.350426
4216.796875	-47.028790
4217.773438	-46.136562
4218.750000	-47.289101
4219.726562	-47.015594
4220.703125	-46.633957
4221.679688	-47.083920
4222.656250	-47.675945
4223.632812	-47.605854
4224.609375	-47.179516
4225.585938	-47.207577
4226.562500	-47.254810
4227.539062	-46.673515
4228.515625	-47.147575
4229.492188	-46.883259
4230.468750	-46.294788
4231.445312	-46.404293
4232.421875	-47.003445
4233.398438	-47.066448
4234.375000	-46.994843
4235.351562	-46.596153
4236.328125	-46.730244
4237.304688	-47.244366
4238.281250	-47.592514
4239.257812	-46.876892
4240.234375	-47.504700
4241.210938	-47.191380
4242.187500	-46.769878
4243.164062	-46.593342
4244.140625	-46.068699
4245.117188	-46.331909
4246.093750	-47.107376
4247.070312	-47.246605
4248.046875	-47.075275
4249.023438	-46.538910
4250.000000	-46.710030
4250.976562	-46.979053
4251.953125	-46.580097
4252.929688	-46.760250
4253.906250	-47.741768
4254.882812	-46.485905
4255.859375	-45.983067
4256.835938	-46.986851
4257.812500	-47.150761
4258.789062	-47.450851
4259.765625	-46.695988
4260.742188	-46.509529
4261.718750	-47.107243
4262.695312	-47.650429
4263.671875	-47.306778
4264.648438	-46.819324
4265.625000	-47.073769
4266.601562	-46.961811
4267.578125	-47.175190
4268.554688	-47.474476
4269.531250	-47.966446
4270.507812	-46.460575
4271.484375	-46.718365
4272.460938	-46.849445
4273.437500	-46.412945
4274.414062	-47.322498
4275.390625	-47.643776
4276.367188	-47.079670
4277.343750	-46.650257
4278.320312	-46.260403
4279.296875	-47.030701
4280.273438	-47.091408
4281.250000	-46.422958
4282.226562	-46.748341
4283.203125	-47.021992
4284.179688	-47.225338
4285.156250	-47.172733
4286.132812	-46.484188
4287.109375	-47.785423
4288.085938	-47.174782
4289.062500	-47.008972
4290.039062	-46.669121
4291.015625	-45.476994
4291.992188	-47.204620
4292.968750	-47.158878
4293.945312	-46.788506
4294.921875	-46.722038
4295.898438	-47.046677
4296.875000	-46.603699
4297.851562	-47.540909
4298.828125	-47.334961
4299.804688	-46.475555
4300.781250	-46.872780
4301.757812	-47.340092
4302.734375	-46.973404
4303.710938	-46.661587
4304.687500	-47.009495
4305.664062	-47.562557
4306.640625	-47.175976
4307.617188	-46.353352
4308.593750	-47.048153
4309.570312	-46.999023
4310.546875	-46.860626
4311.523438	-47.505615
4312.500000	-47.419674
4313.476562	-47.143757
4314.453125	-46.602455
4315.429688	-47.081501
4316.406250	-47.454918
4317.382812	-47.339645
4318.359375	-46.775467
4319.335938	-46.864414
4320.312500	-47.789486
4321.289062	-47.723000
4322.265625	-47.188374
4323.242188	-47.241699
4324.218750	-46.683781
4325.195312	-46.388996
4326.171875	-47.445522
4327.148438	-47.054718
4328.125000	-47.614025
4329.101562	-47.392895
4330.078125	-46.887012
4331.054688	-46.792015
4332.031250	-47.486237
4333.007812	-46.239178
4333.984375	-47.232849
4334.960938	-47.078529
4335.937500	-46.693817
4336.914062	-46.366150
4337.890625	-46.880875
4338.867188	-47.054092
4339.843750	-46.802948
4340.820312	-46.490955
4341.796875	-46.453754
4342.773438	-47.376389
4343.750000	-47.072006
4344.726562	-47.092426
4345.703125	-47.084156
4346.679688	-47.028439
4347.656250	-47.348221
4348.632812	-46.549725
4349.609375	-46.900253
4350.585938	-47.088940
4351.562500	-46.485748
4352.539062	-47.039642
4353.515625	-46.719696
4354.492188	-47.314754
4355.468750	-46.629429
4356.445312	-47.101707
4357.421875	-47.115284
4358.398438	-46.357010
4359.375000	-47.133705
4360.351562	-47.044834
4361.328125	-46.544025
4362.304688	-47.570496
4363.281250	-47.962669
4364.257812	-46.696754
4365.234375	-46.998142
4366.210938	-48.054874
4367.187500	-46.966606
4368.164062	-46.511768
4369.140625	-46.281849
4370.117188	-47.103584
4371.093750	-47.502861
4372.070312	-46.431347
4373.046875	-47.825428
4374.023438	-46.846832
4375.000000	-47.160240
4375.976562	-46.855938
4376.953125	-46.707005
4377.929688	-47.388268
4378.906250	-47.515644
4379.882812	-47.390095
4380.859375	-46.431496
4381.835938	-46.712055
4382.812500	-47.932529
4383.789062	-46.056530
4384.765625	-46.218666
4385.742188	-47.211727
4386.718750	-47.113815
4387.695312	-46.504162
4388.671875	-46.723495
4389.648438	-47.145676
4390.625000	-47.689072
4391.601562	-46.538280
4392.578125	-46.770008
4393.554688	-47.144554
4394.531250	-46.483128
4395.507812	-47.543129
4396.484375	-46.696732
4397.460938	-47.017086
4398.437500	-46.732498
4399.414062	-46.473827
4400.390625	-47.336079
4401.367188	-46.782764
4402.343750	-46.652554
4403.320312	-47.309250
4404.296875	-46.889450
4405.273438	-47.608097
4406.250000	-47.549778
4407.226562	-47.050930
4408.203125	-47.555454
4409.179688	-46.601128
4410.156250	-46.927467
4411.132812	-47.665359
4412.109375	-47.166294
4413.085938	-46.471874
4414.062500	-46.829922
4415.039062	-47.047153
4416.015625	-46.885933
4416.992188	-46.698227
4417.968750	-47.008888
4418.945312	-47.221840
4419.921875	-46.765392
4420.898438	-47.408878
4421.875000	-46.032856
4422.851562	-47.263950
4423.828125	-47.261398
4424.804688	-46.465862
4425.781250	-47.480728
4426.757812	-47.382599
4427.734375	-47.041252
4428.710938	-46.983818
4429.687500	-46.645657
4430.664062	-46.835056
4431.640625	-47.443336
4432.617188	-47.300446
4433.593750	-46.712746
4434.570312	-46.696766
4435.546875	-47.093464
4436.523438	-47.061134
4437.500000	-46.769768
4438.476562	-46.589302
4439.453125	-47.506584
4440.429688	-47.608524
4441.406250	-47.079868
4442.382812	-46.934414
4443.359375	-46.279778
4444.335938	-45.856319
4445.312500	-46.599167
4446.289062	-46.462246
4447.265625	-46.368858
4448.242188	-47.030224
4449.218750	-47.497093
4450.195312	-46.375095
4451.171875	-46.638443
4452.148438	-47.767132
4453.125000	-46.139458
4454.101562	-46.323456
4455.078125	-47.423512
4456.054688	-46.700809
4457.031250	-46.297794
4458.007812	-47.309502
4458.984375	-46.994194
4459.960938	-47.215530
4460.937500	-46.995598
4461.914062	-47.367729
4462.890625	-47.027969
4463.867188	-47.086224
4464.843750	-46.786243
4465.820312	-46.938820
4466.796875	-46.129387
4467.773438	-46.245945
4468.750000	-46.299397
4469.726562	-46.227798
4470.703125	-46.650440
4471.679688	-46.914600
4472.656250	-47.013142
4473.632812	-46.863457
4474.609375	-46.318249
4475.585938	-46.004673
4476.562500	-47.400162
4477.539062	-47.370880
4478.515625	-46.884472
4479.492188	-47.197418
4480.468750	-46.564034
4481.445312	-46.720734
4482.421875	-47.707882
4483.398438	-46.654411
4484.375000	-47.518559
4485.351562	-46.982868
4486.328125	-46.421963
4487.304688	-47.580555
4488.281250	-47.173603
4489.257812	-47.451855
4490.234375	-47.428185
4491.210938	-46.451225
4492.187500	-46.998337
4493.164062	-46.812279
4494.140625	-46.959263
4495.117188	-47.000317
4496.093750	-46.783806
4497.070312	-47.035469
4498.046875	-46.696201
4499.023438	-47.528862
4500.000000	-46.687717
4500.976562	-46.902863
4501.953125	-46.697731
4502.929688	-46.215214
4503.906250	-45.453411
4504.882812	-46.990353
4505.859375	-47.066990
4506.835938	-47.297356
4507.812500	-46.557541
4508.789062	-46.256821
4509.765625	-46.447891
4510.742188	-46.902908
4511.718750	-46.691677
4512.695312	-47.035408
4513.671875	-47.197067
4514.648438	-46.518047
4515.625000	-46.826683
4516.601562	-47.353973
4517.578125	-47.077480
4518.554688	-47.217152
4519.531250	-47.182625
4520.507812	-46.844463
4521.484375	-46.193329
4522.460938	-46.129158
4523.437500	-45.943192
4524.414062	-46.582069
4525.390625	-46.638783
4526.367188	-47.245598
4527.343750	-46.860302
4528.320312	-46.644966
4529.296875	-46.575573
4530.273438	-47.339733
4531.250000	-47.268837
4532.226562	-47.328072
4533.203125	-46.492046
4534.179688	-47.012974
4535.156250	-47.035679
4536.132812	-46.520000
4537.109375	-46.884129
4538.085938	-46.882412
4539.062500	-47.115250
4540.039062	-46.657516
4541.015625	-46.820850
4541.992188	-47.592117
4542.968750	-46.030033
4543.945312	-46.881023
4544.921875	-46.413761
4545.898438	-46.950066
4546.875000	-47.246536
4547.851562	-46.646648
4548.828125	-47.086849
4549.804688	-47.259647
4550.781250	-46.789612
4551.757812	-46.703964
4552.734375	-46.562664
4553.710938	-48.110550
4554.687500	-46.846401
4555.664062	-46.356071
4556.640625	-46.126362
4557.617188	-46.436859
4558.593750	-46.415539
4559.570312	-46.652000
4560.546875	-47.013367
4561.523438	-47.057022
4562.500000	-47.896008
4563.476562	-47.385998
4564.453125	-47.091892
4565.429688	-47.102608
4566.406250	-47.058407
4567.382812	-46.694370
4568.359375	-47.389320
4569.335938	-47.943214
4570.312500	-47.366543
4571.289062	-46.381065
4572.265625	-47.458332
4573.242188	-46.623219
4574.218750	-46.509411
4575.195312	-46.755287
4576.171875	-47.075748
4577.148438	-46.507465
4578.125000	-47.309208
4579.101562	-47.017601
4580.078125	-46.887234
4581.054688	-46.378536
4582.031250	-46.813587
4583.007812	-46.939938
4583.984375	-46.341358
4584.960938	-46.528667
4585.937500	-47.203072
4586.914062	-46.945099
4587.890625	-47.112373
4588.867188	-47.429226
4589.843750	-46.803295
4590.820312	-47.014725
4591.796875	-47.464012
4592.773438	-47.157360
4593.750000	-47.119125
4594.726562	-47.734524
4595.703125	-46.370640
4596.679688	-47.064468
4597.656250	-46.753304
4598.632812	-47.533821
4599.609375	-47.390781
4600.585938	-46.434776
4601.562500	-46.642582
4602.539062	-47.571651
4603.515625	-46.715466
4604.492188	-46.811337
4605.468750	-46.489826
4606.445312	-46.270184
4607.421875	-46.958218
4608.398438	-46.820145
4609.375000	-46.630665
4610.351562	-47.178600
4611.328125	-46.389351
4612.304688	-46.852837
4613.281250	-47.025234
4614.257812	-47.105103
4615.234375	-46.575989
4616.210938	-47.461346
4617.187500	-46.331345
4618.164062	-47.068886
4619.140625	-46.828312
4620.117188	-46.268414
4621.093750	-47.113094
4622.070312	-46.733082
4623.046875	-46.335598
4624.023438	-47.364357
4625.000000	-46.818390
4625.976562	-46.345669
4626.953125	-47.547279
4627.929688	-47.238434
4628.906250	-46.878452
4629.882812	-47.294464
4630.859375	-47.000366
4631.835938	-46.405460
4632.812500	-46.913860
4633.789062	-47.775154
4634.765625	-46.876385
4635.742188	-46.695244
4636.718750	-47.222580
4637.695312	-46.855709
4638.671875	-46.798634
4639.648438	-48.048264
4640.625000	-47.338356
4641.601562	-46.604969
4642.578125	-46.976074
4643.554688	-47.165134
4644.531250	-46.862747
4645.507812	-47.615971
4646.484375	-46.580341
4647.460938	-46.609322
4648.437500	-48.052948
4649.414062	-47.564140
4650.390625	-47.357471
4651.367188	-47.254726
4652.343750	-47.113411
4653.320312	-46.964851
4654.296875	-46.195717
4655.273438	-47.070820
4656.250000	-46.637238
4657.226562	-46.147617
4658.203125	-46.811050
4659.179688	-46.772896
4660.156250	-47.189095
4661.132812	-46.614407
4662.109375	-47.120544
4663.085938	-47.191154
4664.062500	-47.546738
4665.039062	-47.793995
4666.015625	-46.893044
4666.992188	-46.542027
4667.968750	-46.916653
4668.945312	-46.402374
4669.921875	-46.874191
4670.898438	-47.147644
4671.875000	-47.732807
4672.851562	-47.210751
4673.828125	-46.390934
4674.804688	-46.751740
4675.781250	-46.684734
4676.757812	-47.040646
4677.734375	-46.949871
4678.710938	-46.698002
4679.687500	-46.114773
4680.664062	-46.540966
4681.640625	-47.236351
4682.617188	-47.002808
4683.593750	-47.143421
4684.570312	-47.251873
4685.546875	-46.655582
4686.523438	-47.307846
4687.500000	-47.304558
4688.476562	-46.725903
4689.453125	-47.036049
4690.429688	-46.884838
4691.406250	-47.039196
4692.382812	-46.155849
4693.359375	-47.463367
4694.335938	-47.295109
4695.312500	-47.473118
4696.289062	-47.452080
4697.265625	-47.044376
4698.242188	-46.726410
4699.218750	-46.757195
4700.195312	-46.933323
4701.171875	-46.582031
4702.148438	-47.324936
4703.125000	-46.939327
4704.101562	-46.390713
4705.078125	-46.396011
4706.054688	-46.498516
4707.031250	-46.820992
4708.007812	-46.340702
4708.984375	-46.627251
4709.960938	-47.322590
4710.937500	-47.014526
4711.914062	-47.074192
4712.890625	-47.155849
4713.867188	-47.301723
4714.843750	-46.614887
4715.820312	-46.482803
4716.796875	-47.035416
4717.773438	-45.922852
4718.750000	-46.642101
4719.726562	-47.151470
4720.703125	-47.850483
4721.679688	-47.651791
4722.656250	-47.406883
4723.632812	-47.575111
4724.609375	-47.380756
4725.585938	-46.914860
4726.562500	-46.264660
4727.539062	-46.678589
4728.515625	-47.208084
4729.492188	-46.443546
4730.468750	-46.263184
4731.445312	-46.316830
4732.421875	-46.435635
4733.398438	-46.575806
4734.375000	-47.025414
4735.351562	-46.775764
4736.328125	-47.468391
4737.304688	-47.276917
4738.281250	-47.162933
4739.257812	-46.668591
4740.234375	-47.250858
4741.210938	-46.930996
4742.187500	-46.762638
4743.164062	-46.682461
4744.140625	-46.964886
4745.117188	-46.942093
4746.093750	-46.393528
4747.070312	-47.002602
4748.046875	-47.476677
4749.023438	-47.590435
4750.000000	-46.675568
4750.976562	-46.660854
4751.953125	-46.744038
4752.929688	-46.841293
4753.906250	-46.935093
4754.882812	-47.843418
4755.859375	-47.145149
4756.835938	-46.456024
4757.812500	-47.226475
4758.789062	-46.471855
4759.765625	-46.274845
4760.742188	-47.448776
4761.718750	-47.945515
4762.695312	-47.244602
4763.671875	-47.069992
4764.648438	-47.481178
4765.625000	-47.378139
4766.601562	-46.817387
4767.578125	-46.222343
4768.554688	-46.906933
4769.531250	-47.231304
4770.507812	-46.263306
4771.484375	-46.999054
4772.460938	-47.409569
4773.437500	-47.210636
4774.414062	-47.140793
4775.390625	-47.545624
4776.367188	-46.623196
4777.343750	-46.715836
4778.320312	-46.519005
4779.296875	-46.855484
4780.273438	-46.795944
4781.250000	-47.246979
4782.226562	-46.741280
4783.203125	-46.059475
4784.179688	-46.861454
4785.156250	-46.719936
4786.132812	-46.086353
4787.109375	-47.178497
4788.085938	-46.335789
4789.062500	-47.238300
4790.039062	-46.956394
4791.015625	-46.795776
4791.992188	-46.641933
4792.968750	-46.827854
4793.945312	-47.485218
4794.921875	-47.416431
4795.898438	-46.627720
4796.875000	-47.459064
4797.851562	-47.367668
4798.828125	-46.598671
4799.804688	-47.021961
4800.781250	-46.827736
4801.757812	-46.604923
4802.734375	-46.093349
4803.710938	-47.826843
4804.687500	-47.019112
4805.664062	-47.202808
4806.640625	-46.726933
4807.617188	-46.815845
4808.593750	-47.275749
4809.570312	-47.157715
4810.546875	-46.922020
4811.523438	-46.856510
4812.500000	-46.462372
4813.476562	-46.921467
4814.453125	-46.705170
4815.429688	-46.019157
4816.406250	-47.003990
4817.382812	-47.169933
4818.359375	-47.681538
4819.335938	-46.762466
4820.312500	-46.389874
4821.289062	-47.531860
4822.265625	-46.946384
4823.242188	-47.922623
4824.218750	-46.896397
4825.195312	-47.163383
4826.171875	-48.005589
4827.148438	-46.456993
4828.125000	-46.975540
4829.101562	-47.265553
4830.078125	-46.753773
4831.054688	-46.985462
4832.031250	-47.055950
4833.007812	-47.893585
4833.984375	-46.857887
4834.960938	-47.459267
4835.937500	-46.684635
4836.914062	-46.434460
4837.890625	-47.230656
4838.867188	-46.850361
4839.843750	-46.921139
4840.820312	-47.815765
4841.796875	-47.353416
4842.773438	-46.784782
4843.750000	-46.585804
4844.726562	-46.540077
4845.703125	-46.757069
4846.679688	-47.525749
4847.656250	-47.164261
4848.632812	-46.976257
4849.609375	-47.406040
4850.585938	-46.427933
4851.562500	-46.406296
4852.539062	-46.832554
4853.515625	-47.155918
4854.492188	-47.035728
4855.468750	-47.055702
4856.445312	-47.752098
4857.421875	-47.107658
4858.398438	-47.154423
4859.375000	-45.939571
4860.351562	-46.867104
4861.328125	-46.799408
4862.304688	-45.917744
4863.281250	-46.931828
4864.257812	-46.549671
4865.234375	-47.016365
4866.210938	-46.949768
4867.187500	-46.960625
4868.164062	-46.772423
4869.140625	-47.406532
4870.117188	-46.891216
4871.093750	-47.484955
4872.070312	-46.465645
4873.046875	-46.633362
4874.023438	-46.952522
4875.000000	-46.704521
4875.976562	-46.778576
4876.953125	-46.586288
4877.929688	-46.472801
4878.906250	-46.565510
4879.882812	-46.483471
4880.859375	-47.108170
4881.835938	-47.927990
4882.812500	-48.144527
4883.789062	-46.712967
4884.765625	-47.534683
4885.742188	-47.611313
4886.718750	-46.553295
4887.695312	-47.167988
4888.671875	-46.695168
4889.648438	-46.531418
4890.625000	-46.780910
4891.601562	-47.262703
4892.578125	-47.307003
4893.554688	-46.841591
4894.531250	-46.946671
4895.507812	-47.508163
4896.484375	-47.329861
4897.460938	-47.317001
4898.437500	-46.813374
4899.414062	-46.905769
4900.390625	-46.919781
4901.367188	-46.899731
4902.343750	-46.784103
4903.320312	-47.784557
4904.296875	-47.162376
4905.273438	-46.387718
4906.250000	-46.102757
4907.226562	-47.139633
4908.203125	-46.719219
4909.179688	-46.832966
4910.156250	-46.601414
4911.132812	-47.619152
4912.109375	-46.750397
4913.085938	-46.657875
4914.062500	-46.995228
4915.039062	-47.126755
4916.015625	-46.951679
4916.992188	-48.015640
4917.968750	-47.940147
4918.945312	-47.008347
4919.921875	-46.950016
4920.898438	-46.533695
4921.875000	-46.156414
4922.851562	-46.911789
4923.828125	-46.912922
4924.804688	-46.063377
4925.781250	-46.538780
4926.757812	-46.882584
4927.734375	-46.916119
4928.710938	-46.760952
4929.687500	-47.178410
4930.664062	-46.780453
4931.640625	-47.287090
4932.617188	-47.516293
4933.593750	-46.502895
4934.570312	-46.563332
4935.546875	-47.103043
4936.523438	-46.813728
4937.500000	-47.376785
4938.476562	-46.816849
4939.453125	-46.033180
4940.429688	-47.139133
4941.406250	-47.928677
4942.382812	-47.287987
4943.359375	-47.336044
4944.335938	-46.839706
4945.312500	-47.103016
4946.289062	-46.678856
4947.265625	-46.789127
4948.242188	-46.994503
4949.218750	-46.757175
4950.195312	-47.010860
4951.171875	-47.353436
4952.148438	-46.810047
4953.125000	-47.063641
4954.101562	-47.190292
4955.078125	-46.852070
4956.054688	-46.642326
4957.031250	-46.468037
4958.007812	-47.103378
4958.984375	-46.577881
4959.960938	-46.765625
4960.937500	-45.981075
4961.914062	-46.779133
4962.890625	-47.150074
4963.867188	-47.047672
4964.843750	-46.650726
4965.820312	-47.622314
4966.796875	-46.493221
4967.773438	-46.776085
4968.750000	-47.070004
4969.726562	-47.016060
4970.703125	-46.624470
4971.679688	-47.083454
4972.656250	-46.031780
4973.632812	-46.895378
4974.609375	-47.113060
4975.585938	-46.716896
4976.562500	-46.263653
4977.539062	-46.972439
4978.515625	-47.200474
4979.492188	-47.095474
4980.468750	-47.452274
4981.445312	-46.529629
4982.421875	-47.396915
4983.398438	-47.066376
4984.375000	-46.611431
4985.351562	-47.391655
4986.328125	-47.568676
4987.304688	-47.003441
4988.281250	-46.703793
4989.257812	-46.927299
4990.234375	-46.889599
4991.210938	-46.515171
4992.187500	-47.221928
4993.164062	-47.520580
4994.140625	-46.760529
4995.117188	-46.590008
4996.093750	-47.200836
4997.070312	-47.294102
4998.046875	-47.652103
4999.023438	-46.939823
5000.000000	-46.834858
5000.976562	-45.868282
5001.953125	-45.753098
5002.929688	-46.579311
5003.906250	-47.232979
5004.882812	-47.218403
5005.859375	-46.026131
5006.835938	-46.783466
5007.812500	-46.484486
5008.789062	-47.398342
5009.765625	-47.381607
5010.742188	-46.558346
5011.718750	-46.367039
5012.695312	-47.461411
5013.671875	-47.302711
5014.648438	-47.612823
5015.625000	-46.674194
5016.601562	-46.672462
5017.578125	-46.662479
5018.554688	-46.950966
5019.531250	-47.093723
5020.507812	-46.946053
5021.484375	-46.450069
5022.460938	-47.290741
5023.437500	-46.688557
5024.414062	-46.608131
5025.390625	-47.080276
5026.367188	-47.798737
5027.343750	-46.672905
5028.320312	-46.514576
5029.296875	-46.989418
5030.273438	-46.495300
5031.250000	-47.173477
5032.226562	-47.030464
5033.203125	-47.566395
5034.179688	-47.167862
5035.156250	-47.070320
5036.132812	-46.960976
5037.109375	-47.086109
5038.085938	-46.938732
5039.062500	-46.570503
5040.039062	-46.986889
5041.015625	-46.802151
5041.992188	-47.594498
5042.968750	-47.547874
5043.945312	-46.898304
5044.921875	-46.493191
5045.898438	-46.256588
5046.875000	-47.725243
5047.851562	-47.067486
5048.828125	-47.865009
5049.804688	-47.197773
5050.781250	-46.819038
5051.757812	-47.056873
5052.734375	-47.113682
5053.710938	-46.772583
5054.687500	-46.922035
5055.664062	-46.706161
5056.640625	-46.884407
5057.617188	-47.713028
5058.593750	-46.997932
5059.570312	-46.992580
5060.546875	-46.499706
5061.523438	-47.218620
5062.500000	-46.503979
5063.476562	-47.392960
5064.453125	-47.720539
5065.429688	-46.964794
5066.406250	-47.419102
5067.382812	-46.402374
5068.359375	-46.365997
5069.335938	-46.794609
5070.312500	-46.562206
5071.289062	-46.454494
5072.265625	-46.863857
5073.242188	-47.121910
5074.218750	-46.780769
5075.195312	-46.504669
5076.171875	-46.770138
5077.148438	-47.523552
5078.125000	-46.063210
5079.101562	-47.120956
5080.078125	-46.404381
5081.054688	-46.887897
5082.031250	-46.627537
5083.007812	-47.176842
5083.984375	-46.725830
5084.960938	-46.600700
5085.937500	-47.324394
5086.914062	-46.699020
5087.890625	-46.721424
5088.867188	-46.855671
5089.843750	-47.183212
5090.820312	-47.086258
5091.796875	-46.934666
5092.773438	-47.390976
5093.750000	-47.041473
5094.726562	-47.789398
5095.703125	-47.108437
5096.679688	-47.390331
5097.656250	-47.460171
5098.632812	-46.927132
5099.609375	-46.486469
5100.585938	-47.025833
5101.562500	-46.928284
5102.539062	-46.597107
5103.515625	-46.478233
5104.492188	-46.675320
5105.468750	-46.224842
5106.445312	-47.519272
5107.421875	-46.851223
5108.398438	-47.693752
5109.375000	-47.888943
5110.351562	-47.348717
5111.328125	-46.367340
5112.304688	-47.336880
5113.281250	-46.868832
5114.257812	-46.798565
5115.234375	-47.315990
5116.210938	-45.700928
5117.187500	-46.780174
5118.164062	-46.662807
5119.140625	-46.940884
5120.117188	-46.435654
5121.093750	-47.139278
5122.070312	-47.082539
5123.046875	-46.123837
5124.023438	-46.942596
5125.000000	-46.694283
5125.976562	-46.834354
5126.953125	-46.119205
5127.929688	-46.898472
5128.906250	-46.542633
5129.882812	-46.984795
5130.859375	-47.620884
5131.835938	-46.772614
5132.812500	-47.143475
5133.789062	-47.386810
5134.765625	-47.299717
5135.742188	-47.007153
5136.718750	-47.128620
5137.695312	-46.360241
5138.671875	-46.558144
5139.648438	-46.347042
5140.625000	-46.883698
5141.601562	-46.737507
5142.578125	-46.692883
5143.554688	-46.657593
5144.531250	-46.542706
5145.507812	-47.676346
5146.484375	-46.893494
5147.460938	-46.897610
5148.437500	-47.246876
5149.414062	-47.949326
5150.390625	-47.527149
5151.367188	-47.256023
5152.343750	-46.754021
5153.320312	-46.312679
5154.296875	-46.574818
5155.273438	-46.697750
5156.250000	-46.385582
5157.226562	-46.490681
5158.203125	-46.417534
5159.179688	-46.358768
5160.156250	-47.768150
5161.132812	-47.099888
5162.109375	-46.907368
5163.085938	-47.006927
5164.062500	-46.624454
5165.039062	-47.502167
5166.015625	-46.834553
5166.992188	-46.868271
5167.968750	-47.022396
5168.945312	-47.085323
5169.921875	-47.252270
5170.898438	-47.182587
5171.875000	-46.585529
5172.851562	-46.617542
5173.828125	-47.092758
5174.804688	-46.624004
5175.781250	-46.824051
5176.757812	-47.563637
5177.734375	-46.542782
5178.710938	-46.891068
5179.687500	-47.746052
5180.664062	-47.573994
5181.640625	-47.592422
5182.617188	-46.883068
5183.593750	-46.775482
5184.570312	-46.564713
5185.546875	-47.587891
5186.523438	-47.411961
5187.500000	-47.038372
5188.476562	-46.987015
5189.453125	-46.176441
5190.429688	-47.706230
5191.406250	-46.142803
5192.382812	-45.935230
5193.359375	-46.107166
5194.335938	-46.053230
5195.312500	-46.670364
5196.289062	-46.578140
5197.265625	-47.177662
5198.242188	-46.953136
5199.218750	-46.721725
5200.195312	-46.900917
5201.171875	-46.264977
5202.148438	-47.424259
5203.125000	-46.388000
5204.101562	-46.718384
5205.078125	-46.268009
5206.054688	-46.460434
5207.031250	-46.911972
5208.007812	-47.061371
5208.984375	-47.059540
5209.960938	-46.841648
5210.937500	-46.519596
5211.914062	-46.517063
5212.890625	-47.090302
5213.867188	-46.941181
5214.843750	-47.141010
5215.820312	-46.556023
5216.796875	-47.207600
5217.773438	-46.696205
5218.750000	-46.593033
5219.726562	-46.523384
5220.703125	-46.247673
5221.679688	-46.676300
5222.656250	-47.502007
5223.632812	-46.500954
5224.609375	-46.236019
5225.585938	-47.024078
5226.562500	-46.890148
5227.539062	-46.224579
5228.515625	-46.320934
5229.492188	-46.691479
5230.468750	-47.288780
5231.445312	-47.124096
5232.421875	-46.262249
5233.398438	-47.268486
5234.375000	-47.174942
5235.351562	-46.977478
5236.328125	-47.698692
5237.304688	-47.149338
5238.281250	-47.550983
5239.257812	-47.773392
5240.234375	-46.818436
5241.210938	-46.995483
5242.187500	-46.938023
5243.164062	-47.230446
5244.140625	-47.366226
5245.117188	-47.052330
5246.093750	-46.724613
5247.070312	-46.529102
5248.046875	-46.499817
5249.023438	-46.968925
5250.000000	-46.721077
5250.976562	-46.994976
5251.953125	-47.147640
5252.929688	-46.575459
5253.906250	-46.482784
5254.882812	-47.076366
5255.859375	-46.780357
5256.835938	-46.332447
5257.812500	-47.399204
5258.789062	-46.858170
5259.765625	-46.330612
5260.742188	-46.676830
5261.718750	-47.125835
5262.695312	-47.205681
5263.671875	-46.801010
5264.648438	-46.607330
5265.625000	-48.163731
5266.601562	-46.312145
5267.578125	-46.890514
5268.554688	-47.381546
5269.531250	-47.190681
5270.507812	-45.886410
5271.484375	-46.984756
5272.460938	-47.564178
5273.437500	-46.616119
5274.414062	-46.076103
5275.390625	-46.725708
5276.367188	-46.709991
5277.343750	-46.750587
5278.320312	-46.700359
5279.296875	-46.866413
5280.273438	-47.456818
5281.250000	-46.951385
5282.226562	-47.158100
5283.203125	-46.874870
5284.179688	-47.973370
5285.156250	-47.015949
5286.132812	-46.591446
5287.109375	-47.602310
5288.085938	-47.290096
5289.062500	-46.714981
5290.039062	-47.142220
5291.015625	-47.373779
5291.992188	-46.178112
5292.968750	-46.263802
5293.945312	-46.599281
5294.921875	-46.662579
5295.898438	-46.858051
5296.875000	-46.389065
5297.851562	-46.851501
5298.828125	-47.333694
5299.804688	-45.799179
5300.781250	-45.582325
5301.757812	-46.555981
5302.734375	-46.233265
5303.710938	-46.674202
5304.687500	-46.813663
5305.664062	-47.221333
5306.640625	-46.780697
5307.617188	-46.986813
5308.593750	-46.557720
5309.570312	-46.478069
5310.546875	-46.859837
5311.523438	-46.666428
5312.500000	-46.409180
5313.476562	-47.309689
5314.453125	-47.197529
5315.429688	-46.594910
5316.406250	-47.548080
5317.382812	-47.368599
5318.359375	-46.727894
5319.335938	-46.766674
5320.312500	-46.882729
5321.289062	-46.506210
5322.265625	-46.591713
5323.242188	-46.404572
5324.218750	-46.664413
5325.195312	-47.535690
5326.171875	-46.651360
5327.148438	-47.347431
5328.125000	-46.762844
5329.101562	-46.895615
5330.078125	-46.953125
5331.054688	-46.371918
5332.031250	-47.060894
5333.007812	-47.678223
5333.984375	-46.790409
5334.960938	-47.457417
5335.937500	-47.273895
5336.914062	-47.096428
5337.890625	-46.159611
5338.867188	-47.306648
5339.843750	-47.131260
5340.820312	-46.296738
5341.796875	-47.002808
5342.773438	-46.385941
5343.750000	-47.086342
5344.726562	-47.039566
5345.703125	-47.454346
5346.679688	-47.489258
5347.656250	-46.841972
5348.632812	-46.322613
5349.609375	-47.201962
5350.585938	-46.638855
5351.562500	-46.619053
5352.539062	-46.770824
5353.515625	-46.982277
5354.492188	-46.385902
5355.468750	-47.445362
5356.445312	-47.242973
5357.421875	-47.445873
5358.398438	-47.085205
5359.375000	-47.277481
5360.351562	-46.723484
5361.328125	-46.829880
5362.304688	-46.360512
5363.281250	-46.702354
5364.257812	-46.701756
5365.234375	-47.348686
5366.210938	-47.127174
5367.187500	-47.074108
5368.164062	-47.353733
5369.140625	-47.487061
5370.117188	-46.898746
5371.093750	-46.401463
5372.070312	-47.292118
5373.046875	-47.545338
5374.023438	-46.538448
5375.000000	-47.478035
5375.976562	-46.651073
5376.953125	-46.963177
5377.929688	-46.366306
5378.906250	-47.233295
5379.882812	-46.375553
5380.859375	-47.237450
5381.835938	-46.963615
5382.812500	-46.237366
5383.789062	-46.754723
5384.765625	-47.402321
5385.742188	-46.358253
5386.718750	-47.185719
5387.695312	-46.828934
5388.671875	-46.145889
5389.648438	-46.475380
5390.625000	-46.649422
5391.601562	-47.341545
5392.578125	-47.506447
5393.554688	-47.414021
5394.531250	-47.502029
5395.507812	-47.099426
5396.484375	-46.516655
5397.460938	-47.180004
5398.437500	-46.376701
5399.414062	-46.649551
5400.390625	-46.757153
5401.367188	-47.061943
5402.343750	-47.094849
5403.320312	-47.166298
5404.296875	-47.546257
5405.273438	-46.724499
5406.250000	-47.510414
5407.226562	-47.225719
5408.203125	-46.338428
5409.179688	-46.511082
5410.156250	-46.840557
5411.132812	-46.651894
5412.109375	-46.992981
5413.085938	-47.265034
5414.062500	-46.544823
5415.039062	-46.424221
5416.015625	-47.280811
5416.992188	-47.085167
5417.968750	-47.345905
5418.945312	-47.023033
5419.921875	-47.148506
5420.898438	-46.941853
5421.875000	-46.725830
5422.851562	-46.515450
5423.828125	-46.499702
5424.804688	-47.687988
5425.781250	-47.013000
5426.757812	-46.686668
5427.734375	-47.070374
5428.710938	-46.836529
5429.687500	-47.005596
5430.664062	-47.541218
5431.640625	-46.891769
5432.617188	-47.090904
5433.593750	-47.286339
5434.570312	-47.380680
5435.546875	-47.193382
5436.523438	-46.757236
5437.500000	-46.777344
5438.476562	-46.835850
5439.453125	-46.993206
5440.429688	-46.796688
5441.406250	-46.830547
5442.382812	-46.798763
5443.359375	-47.525295
5444.335938	-46.697548
5445.312500	-46.193039
5446.289062	-46.658695
5447.265625	-46.523113
5448.242188	-46.385052
5449.218750	-46.347279
5450.195312	-46.828690
5451.171875	-47.173088
5452.148438	-47.722740
5453.125000	-45.928032
5454.101562	-47.216198
5455.078125	-47.157921
5456.054688	-46.888172
5457.031250	-46.895020
5458.007812	-47.191345
5458.984375	-48.460384
5459.960938	-47.515022
5460.937500	-46.829937
5461.914062	-47.122791
5462.890625	-47.094345
5463.867188	-46.762344
5464.843750	-46.468727
5465.820312	-47.103760
5466.796875	-46.657566
5467.773438	-46.943954
5468.750000	-47.176693
5469.726562	-47.017277
5470.703125	-47.042057
5471.679688	-47.616810
5472.656250	-46.773617
5473.632812	-47.510773
5474.609375	-46.792366
5475.585938	-46.914742
5476.562500	-46.584827
5477.539062	-47.157116
5478.515625	-46.524086
5479.492188	-46.924210
5480.468750	-47.072289
5481.445312	-47.054970
5482.421875	-46.628784
5483.398438	-47.080948
5484.375000	-46.847237
5485.351562	-47.005360
5486.328125	-46.338753
5487.304688	-47.183662
5488.281250	-46.364731
5489.257812	-47.064495
5490.234375	-47.158665
5491.210938	-46.834236
5492.187500	-46.768753
5493.164062	-46.816177
5494.140625	-46.993206
5495.117188	-46.813465
5496.093750	-47.095779
5497.070312	-46.401802
5498.046875	-46.628010
5499.023438	-46.466183
5500.000000	-47.037781
5500.976562	-46.878338
5501.953125	-47.652313
5502.929688	-47.097137
5503.906250	-47.156345
5504.882812	-47.135811
5505.859375	-47.109280
5506.835938	-47.785114
5507.812500	-46.749977
5508.789062	-46.835087
5509.765625	-46.828758
5510.742188	-46.577755
5511.718750	-46.871960
5512.695312	-47.356575
5513.671875	-46.783176
5514.648438	-46.685242
5515.625000	-46.650120
5516.601562	-47.394104
5517.578125	-47.018631
5518.554688	-47.482197
5519.531250	-46.971912
5520.507812	-46.024555
5521.484375	-46.452351
5522.460938	-47.186100
5523.437500	-46.895069
5524.414062	-47.133144
5525.390625	-47.811436
5526.367188	-47.667877
5527.343750	-46.530186
5528.320312	-46.640778
5529.296875	-46.908566
5530.273438	-47.010990
5531.250000	-46.929600
5532.226562	-47.108494
5533.203125	-47.046150
5534.179688	-46.384281
5535.156250	-47.287632
5536.132812	-46.944965
5537.109375	-46.887661
5538.085938	-46.945107
5539.062500	-47.606594
5540.039062	-47.356426
5541.015625	-47.004917
5541.992188	-46.928555
5542.968750	-46.985649
5543.945312	-45.802036
5544.921875	-46.508408
5545.898438	-47.283642
5546.875000	-47.295540
5547.851562	-47.823765
5548.828125	-46.783882
5549.804688	-46.835098
5550.781250	-46.982929
5551.757812	-46.960453
5552.734375	-47.114029
5553.710938	-47.438869
5554.687500	-47.444878
5555.664062	-46.585960
5556.640625	-46.324146
5557.617188	-45.878456
5558.593750	-46.747833
5559.570312	-47.028290
5560.546875	-46.590797
5561.523438	-46.422432
5562.500000	-46.909817
5563.476562	-46.748943
5564.453125	-48.332642
5565.429688	-46.830925
5566.406250	-46.705566
5567.382812	-46.957462
5568.359375	-46.827644
5569.335938	-46.727684
5570.312500	-46.771366
5571.289062	-46.407082
5572.265625	-47.328930
5573.242188	-46.263294
5574.218750	-46.765484
5575.195312	-47.148151
5576.171875	-47.276569
5577.148438	-46.205719
5578.125000	-46.925716
5579.101562	-47.390606
5580.078125	-47.070293
5581.054688	-46.697903
5582.031250	-46.577679
5583.007812	-46.430019
5583.984375	-47.340916
5584.960938	-46.569664
5585.937500	-46.610283
5586.914062	-46.830132
5587.890625	-46.478565
5588.867188	-46.210255
5589.843750	-46.862236
5590.820312	-46.741386
5591.796875	-47.311066
5592.773438	-47.485062
5593.750000	-46.579872
5594.726562	-47.274162
5595.703125	-46.305817
5596.679688	-46.795582
5597.656250	-46.728283
5598.632812	-47.150059
5599.609375	-47.126122
5600.585938	-47.905029
5601.562500	-47.440578
5602.539062	-46.231792
5603.515625	-47.127785
5604.492188	-46.439934
5605.468750	-46.926861
5606.445312	-46.045753
5607.421875	-47.008736
5608.398438	-46.944752
5609.375000	-47.608646
5610.351562	-47.045616
5611.328125	-47.097363
5612.304688	-46.609631
5613.281250	-46.708183
5614.257812	-46.881744
5615.234375	-46.019573
5616.210938	-47.406940
5617.187500	-47.243584
5618.164062	-46.484180
5619.140625	-47.292313
5620.117188	-46.790993
5621.093750	-46.739185
5622.070312	-47.069530
5623.046875	-46.675030
5624.023438	-46.675064
5625.000000	-46.764172
5625.976562	-47.315880
5626.953125	-47.750557
5627.929688	-46.661003
5628.906250	-47.144333
5629.882812	-46.533737
5630.859375	-46.102734
5631.835938	-46.845051
5632.812500	-47.052525
5633.789062	-47.621525
5634.765625	-47.379112
5635.742188	-47.067043
5636.718750	-47.077625
5637.695312	-46.748783
5638.671875	-46.682133
5639.648438	-47.737675
5640.625000	-46.602322
5641.601562	-46.814774
5642.578125	-47.157333
5643.554688	-47.234493
5644.531250	-48.310421
5645.507812	-47.759186
5646.484375	-46.852394
5647.460938	-47.094357
5648.437500	-46.600777
5649.414062	-47.157894
5650.390625	-46.810287
5651.367188	-46.974014
5652.343750	-46.667770
5653.320312	-46.488098
5654.296875	-46.871086
5655.273438	-47.213524
5656.250000	-45.951065
5657.226562	-46.567764
5658.203125	-47.221157
5659.179688	-46.586540
5660.156250	-46.904816
5661.132812	-47.264942
5662.109375	-47.233505
5663.085938	-46.783508
5664.062500	-47.237385
5665.039062	-46.877678
5666.015625	-47.665909
5666.992188	-46.689594
5667.968750	-46.740917
5668.945312	-46.331898
5669.921875	-46.642487
5670.898438	-46.878517
5671.875000	-46.916096
5672.851562	-46.981773
5673.828125	-46.764416
5674.804688	-47.110138
5675.781250	-47.046032
5676.757812	-46.863094
5677.734375	-46.724712
5678.710938	-46.776138
5679.687500	-47.192715
5680.664062	-46.611492
5681.640625	-46.604336
5682.617188	-47.064804
5683.593750	-47.109852
5684.570312	-46.519249
5685.546875	-47.121170
5686.523438	-46.725033
5687.500000	-46.983955
5688.476562	-46.548042
5689.453125	-46.735592
5690.429688	-47.629520
5691.406250	-47.201439
5692.382812	-46.796825
5693.359375	-47.202953
5694.335938	-47.526417
5695.312500	-47.019600
5696.289062	-47.477024
5697.265625	-46.740971
5698.242188	-46.752293
5699.218750	-46.070297
5700.195312	-47.558926
5701.171875	-47.342087
5702.148438	-47.496429
5703.125000	-47.148453
5704.101562	-46.812515
5705.078125	-46.218628
5706.054688	-46.492035
5707.031250	-46.186718
5708.007812	-46.537968
5708.984375	-46.888889
5709.960938	-46.547222
5710.937500	-47.437111
5711.914062	-47.742893
5712.890625	-47.357960
5713.867188	-47.352863
5714.843750	-47.673920
5715.820312	-47.527912
5716.796875	-46.727524
5717.773438	-47.099316
5718.750000	-46.588879
5719.726562	-45.823246
5720.703125	-45.843418
5721.679688	-46.650486
5722.656250	-47.564846
5723.632812	-47.071400
5724.609375	-46.916477
5725.585938	-48.221504
5726.562500	-46.899998
5727.539062	-47.198799
5728.515625	-46.594723
5729.492188	-46.766174
5730.468750	-46.748745
5731.445312	-46.799747
5732.421875	-46.760941
5733.398438	-47.674343
5734.375000	-47.230045
5735.351562	-46.965553
5736.328125	-47.623276
5737.304688	-46.981846
5738.281250	-46.927532
5739.257812	-46.644054
5740.234375	-47.384708
5741.210938	-46.752636
5742.187500	-46.367504
5743.164062	-47.495895
5744.140625	-46.631870
5745.117188	-46.805046
5746.093750	-46.965919
5747.070312	-46.846474
5748.046875	-46.832443
5749.023438	-47.301315
5750.000000	-46.010506
5750.976562	-47.059628
5751.953125	-46.702705
5752.929688	-47.203007
5753.906250	-47.414902
5754.882812	-46.677414
5755.859375	-47.006229
5756.835938	-47.240646
5757.812500	-47.059875
5758.789062	-46.912991
5759.765625	-47.923759
5760.742188	-46.314331
5761.718750	-47.913067
5762.695312	-47.375916
5763.671875	-47.531540
5764.648438	-47.058773
5765.625000	-46.654404
5766.601562	-46.856224
5767.578125	-47.065109
5768.554688	-46.798584
5769.531250	-47.235703
5770.507812	-47.144108
5771.484375	-46.767464
5772.460938	-47.092918
5773.437500	-47.382671
5774.414062	-47.206631
5775.390625	-46.987732
5776.367188	-46.227287
5777.343750	-46.432896
5778.320312	-46.941372
5779.296875	-47.186871
5780.273438	-46.300728
5781.250000	-46.207481
5782.226562	-46.839161
5783.203125	-47.144173
5784.179688	-47.047554
5785.156250	-47.294640
5786.132812	-46.919460
5787.109375	-46.732662
5788.085938	-46.334511
5789.062500	-47.004196
5790.039062	-47.194626
5791.015625	-47.302086
5791.992188	-46.855412
5792.968750	-47.400398
5793.945312	-47.417408
5794.921875	-46.907135
5795.898438	-47.076088
5796.875000	-47.320553
5797.851562	-47.146877
5798.828125	-47.684402
5799.804688	-47.402752
5800.781250	-47.242146
5801.757812	-46.384197
5802.734375	-46.351440
5803.710938	-46.611675
5804.687500	-47.292042
5805.664062	-46.796074
5806.640625	-47.388466
5807.617188	-46.150787
5808.593750	-45.816437
5809.570312	-46.483578
5810.546875	-46.711693
5811.523438	-46.482075
5812.500000	-47.305538
5813.476562	-47.203049
5814.453125	-46.497482
5815.429688	-46.540127
5816.406250	-47.211948
5817.382812	-47.262585
5818.359375	-46.906013
5819.335938	-47.111561
5820.312500	-47.501942
5821.289062	-47.376633
5822.265625	-47.585800
5823.242188	-47.031601
5824.218750	-46.509621
5825.195312	-46.569939
5826.171875	-47.015205
5827.148438	-47.092075
5828.125000	-47.118782
5829.101562	-47.273216
5830.078125	-46.786442
5831.054688	-46.355618
5832.031250	-46.872765
5833.007812	-47.296124
5833.984375	-47.221901
5834.960938	-47.256828
5835.937500	-46.874447
5836.914062	-47.120544
5837.890625	-47.346302
5838.867188	-46.964165
5839.843750	-46.968704
5840.820312	-47.038860
5841.796875	-46.496143
5842.773438	-46.038536
5843.750000	-46.998791
5844.726562	-47.233803
5845.703125	-47.320950
5846.679688	-46.706158
5847.656250	-47.038868
5848.632812	-47.510448
5849.609375	-46.570419
5850.585938	-46.654037
5851.562500	-46.355537
5852.539062	-46.095997
5853.515625	-46.359203
5854.492188	-46.712425
5855.468750	-46.375008
5856.445312	-47.100655
5857.421875	-47.343513
5858.398438	-46.969322
5859.375000	-46.373291
5860.351562	-47.398415
5861.328125	-46.570980
5862.304688	-47.302155
5863.281250	-47.406418
5864.257812	-47.125931
5865.234375	-47.869873
5866.210938	-46.996338
5867.187500	-46.678783
5868.164062	-47.005890
5869.140625	-46.833172
5870.117188	-46.413105
5871.093750	-46.917339
5872.070312	-46.913830
5873.046875	-46.964794
5874.023438	-47.055878
5875.000000	-46.683701
5875.976562	-46.622917
5876.953125	-46.775288
5877.929688	-47.646908
5878.906250	-46.655891
5879.882812	-46.886490
5880.859375	-46.649872
5881.835938	-47.057369
5882.812500	-47.075253
5883.789062	-47.088039
5884.765625	-47.419693
5885.742188	-47.521019
5886.718750	-47.012077
5887.695312	-47.114948
5888.671875	-46.028030
5889.648438	-46.720436
5890.625000	-47.060326
5891.601562	-46.870285
5892.578125	-45.902847
5893.554688	-47.263809
5894.531250	-46.936222
5895.507812	-46.406624
5896.484375	-46.836723
5897.460938	-47.033688
5898.437500	-47.882011
5899.414062	-46.756828
5900.390625	-47.774670
5901.367188	-47.498596
5902.343750	-47.877674
5903.320312	-46.933022
5904.296875	-46.271976
5905.273438	-47.177734
5906.250000	-47.915016
5907.226562	-47.281796
5908.203125	-46.987110
5909.179688	-47.118420
5910.156250	-47.422924
5911.132812	-46.618862
5912.109375	-47.069069
5913.085938	-47.428017
5914.062500	-46.390522
5915.039062	-46.835625
5916.015625	-46.544502
5916.992188	-46.490887
5917.968750	-46.855576
5918.945312	-46.918564
5919.921875	-47.596935
5920.898438	-47.067608
5921.875000	-46.883678
5922.851562	-46.801189
5923.828125	-46.588665
5924.804688	-46.702217
5925.781250	-47.546219
5926.757812	-46.682125
5927.734375	-47.166294
5928.710938	-46.966888
5929.687500	-46.905338
5930.664062	-47.235188
5931.640625	-48.051689
5932.617188	-47.563534
5933.593750	-47.066650
5934.570312	-46.515419
5935.546875	-46.604927
5936.523438	-46.321045
5937.500000	-46.889473
5938.476562	-46.206184
5939.453125	-46.173470
5940.429688	-46.440266
5941.406250	-47.215572
5942.382812	-46.764992
5943.359375	-47.320114
5944.335938	-46.912514
5945.312500	-46.937187
5946.289062	-46.798656
5947.265625	-46.959652
5948.242188	-46.167553
5949.218750	-47.367138
5950.195312	-46.671883
5951.171875	-46.717293
5952.148438	-46.457657
5953.125000	-46.830864
5954.101562	-46.576160
5955.078125	-46.177753
5956.054688	-46.789749
5957.031250	-46.461941
5958.007812	-48.250481
5958.984375	-47.313770
5959.960938	-47.577774
5960.937500	-47.224342
5961.914062	-46.849182
5962.890625	-47.351341
5963.867188	-46.843231
5964.843750	-46.795494
5965.820312	-47.617798
5966.796875	-46.893391
5967.773438	-47.571949
5968.750000	-46.713245
5969.726562	-45.906155
5970.703125	-47.320477
5971.679688	-46.906364
5972.656250	-46.687725
5973.632812	-47.045876
5974.609375	-47.049469
5975.585938	-46.526447
5976.562500	-47.161861
5977.539062	-46.613121
5978.515625	-47.090324
5979.492188	-46.770565
5980.468750	-46.795536
5981.445312	-47.395069
5982.421875	-46.938057
5983.398438	-46.345646
5984.375000	-46.667023
5985.351562	-46.599392
5986.328125	-46.408634
5987.304688	-46.813675
5988.281250	-46.950150
5989.257812	-46.175495
5990.234375	-45.985962
5991.210938	-46.530399
5992.187500	-47.518562
5993.164062	-46.799255
5994.140625	-46.721874
5995.117188	-46.566696
5996.093750	-46.027046
5997.070312	-46.654575
5998.046875	-47.284004
5999.023438	-47.254562
6000.000000	-47.435196
6000.976562	-47.113186
6001.953125	-46.644634
6002.929688	-47.468628
6003.906250	-46.864155
6004.882812	-47.460819
6005.859375	-46.462536
6006.835938	-46.952522
6007.812500	-46.896046
6008.789062	-46.704514
6009.765625	-46.900795
6010.742188	-46.820457
6011.718750	-47.020447
6012.695312	-46.728107
6013.671875	-47.167427
6014.648438	-46.639378
6015.625000	-46.833851
6016.601562	-47.011627
6017.578125	-46.648056
6018.554688	-46.435661
6019.531250	-46.568684
6020.507812	-46.858612
6021.484375	-46.771038
6022.460938	-46.701683
6023.437500	-47.207073
6024.414062	-46.933365
6025.390625	-47.146236
6026.367188	-46.742554
6027.343750	-46.966511
6028.320312	-46.681690
6029.296875	-47.023315
6030.273438	-47.626534
6031.250000	-47.448803
6032.226562	-47.116405
6033.203125	-46.981720
6034.179688	-47.773701
6035.156250	-45.548847
6036.132812	-47.045811
6037.109375	-47.938080
6038.085938	-47.231602
6039.062500	-47.296505
6040.039062	-46.791103
6041.015625	-47.286011
6041.992188	-47.170620
6042.968750	-47.582916
6043.945312	-47.432014
6044.921875	-47.304138
6045.898438	-46.922638
6046.875000	-46.920910
6047.851562	-47.096611
6048.828125	-46.908558
6049.804688	-46.038433
6050.781250	-46.761463
6051.757812	-47.555698
6052.734375	-47.369179
6053.710938	-46.760586
6054.687500	-47.029285
6055.664062	-47.009666
6056.640625	-46.642506
6057.617188	-46.474903
6058.593750	-46.975822
6059.570312	-46.540703
6060.546875	-47.449261
6061.523438	-46.922031
6062.500000	-47.109085
6063.476562	-47.091675
6064.453125	-46.995510
6065.429688	-47.601364
6066.406250	-47.041054
6067.382812	-46.745316
6068.359375	-46.465057
6069.335938	-46.504623
6070.312500	-47.140167
6071.289062	-47.636932
6072.265625	-47.359917
6073.242188	-46.880123
6074.218750	-46.651791
6075.195312	-47.313679
6076.171875	-47.651909
6077.148438	-47.320827
6078.125000	-47.589893
6079.101562	-47.252831
6080.078125	-46.960773
6081.054688	-46.917702
6082.031250	-47.666222
6083.007812	-47.472599
6083.984375	-47.136612
6084.960938	-47.158821
6085.937500	-47.712872
6086.914062	-47.262848
6087.890625	-47.559158
6088.867188	-46.682583
6089.843750	-46.698502
6090.820312	-47.235619
6091.796875	-46.794430
6092.773438	-46.010376
6093.750000	-46.673012
6094.726562	-46.585907
6095.703125	-46.932499
6096.679688	-47.196400
6097.656250	-46.558865
6098.632812	-46.750736
6099.609375	-46.498249
6100.585938	-46.293007
6101.562500	-46.393272
6102.539062	-46.880890
6103.515625	-46.184246
6104.492188	-46.909657
6105.468750	-46.910728
6106.445312	-46.174438
6107.421875	-46.706749
6108.398438	-47.106277
6109.375000	-47.583122
6110.351562	-47.317902
6111.328125	-46.711910
6112.304688	-46.862797
6113.281250	-46.515465
6114.257812	-47.002140
6115.234375	-46.728184
6116.210938	-47.914135
6117.187500	-46.990810
6118.164062	-46.371410
6119.140625	-47.058537
6120.117188	-46.627140
6121.093750	-46.821068
6122.070312	-46.922047
6123.046875	-47.153442
6124.023438	-47.357765
6125.000000	-46.057697
6125.976562	-47.082623
6126.953125	-47.443336
6127.929688	-47.545784
6128.906250	-47.544739
6129.882812	-46.811562
6130.859375	-46.867485
6131.835938	-46.617306
6132.812500	-46.973499
6133.789062	-47.023674
6134.765625	-47.274353
6135.742188	-47.029442
6136.718750	-46.841007
6137.695312	-47.224743
6138.671875	-47.264328
6139.648438	-47.292702
6140.625000	-47.513756
6141.601562	-47.122025
6142.578125	-46.872547
6143.554688	-46.845905
6144.531250	-46.537807
6145.507812	-46.430904
6146.484375	-46.579277
6147.460938	-47.199200
6148.437500	-46.926086
6149.414062	-47.213600
6150.390625	-47.137169
6151.367188	-46.147881
6152.343750	-46.225151
6153.320312	-46.540394
6154.296875	-45.618122
6155.273438	-46.828423
6156.250000	-47.437973
6157.226562	-47.447796
6158.203125	-46.845570
6159.179688	-47.116875
6160.156250	-46.336098
6161.132812	-47.687855
6162.109375	-46.298851
6163.085938	-46.590878
6164.062500	-46.864376
6165.039062	-47.313740
6166.015625	-46.348202
6166.992188	-46.659630
6167.968750	-46.764259
6168.945312	-46.987232
6169.921875	-46.656929
6170.898438	-47.037388
6171.875000	-46.947540
6172.851562	-46.805000
6173.828125	-46.670105
6174.804688	-46.215954
6175.781250	-46.676365
6176.757812	-46.474823
6177.734375	-47.528004
6178.710938	-46.530674
6179.687500	-46.164799
6180.664062	-47.001106
6181.640625	-47.518818
6182.617188	-47.095100
6183.593750	-48.284821
6184.570312	-46.476028
6185.546875	-46.131725
6186.523438	-47.394753
6187.500000	-47.307140
6188.476562	-46.857815
6189.453125	-47.199841
6190.429688	-46.492893
6191.406250	-46.909767
6192.382812	-48.002407
6193.359375	-46.491211
6194.335938	-46.475475
6195.312500	-46.639481
6196.289062	-47.435944
6197.265625	-47.338531
6198.242188	-46.796780
6199.218750	-47.408123
6200.195312	-46.810081
6201.171875	-46.236900
6202.148438	-45.890175
6203.125000	-46.309929
6204.101562	-45.851971
6205.078125	-47.304932
6206.054688	-47.804497
6207.031250	-46.875481
6208.007812	-46.883705
6208.984375	-47.260170
6209.960938	-46.696507
6210.937500	-47.406883
6211.914062	-46.923843
6212.890625	-47.176689
6213.867188	-47.006557
6214.843750	-46.894032
6215.820312	-46.269417
6216.796875	-46.780373
6217.773438	-47.262913
6218.750000	-46.734386
6219.726562	-46.787544
6220.703125	-46.642776
6221.679688	-47.080963
6222.656250	-46.486580
6223.632812	-46.890209
6224.609375	-47.241669
6225.585938	-46.206062
6226.562500	-47.268688
6227.539062	-47.457802
6228.515625	-46.339230
6229.492188	-46.827480
6230.468750	-46.640003
6231.445312	-46.770473
6232.421875	-47.185329
6233.398438	-46.156479
6234.375000	-47.188736
6235.351562	-47.008347
6236.328125	-47.647339
6237.304688	-47.083202
6238.281250	-47.667912
6239.257812	-47.068039
6240.234375	-46.494766
6241.210938	-46.725319
6242.187500	-46.603752
6243.164062	-46.796230
6244.140625	-46.602448
6245.117188	-46.768417
6246.093750	-47.288242
6247.070312	-46.261646
6248.046875	-46.419212
6249.023438	-46.748207
6250.000000	-46.900684
6250.976562	-46.911583
6251.953125	-46.850189
6252.929688	-47.070572
6253.906250	-46.063988
6254.882812	-46.878380
6255.859375	-47.605778
6256.835938	-47.186184
6257.812500	-47.269630
6258.789062	-46.979549
6259.765625	-46.778172
6260.742188	-47.463829
6261.718750	-47.611641
6262.695312	-47.767792
6263.671875	-47.251312
6264.648438	-47.255249
6265.625000	-46.684143
6266.601562	-46.927292
6267.578125	-47.452850
6268.554688	-47.005672
6269.531250	-46.849682
6270.507812	-47.178673
6271.484375	-46.606087
6272.460938	-47.338097
6273.437500	-47.538918
6274.414062	-46.175720
6275.390625	-47.061401
6276.367188	-46.162010
6277.343750	-47.081299
6278.320312	-46.890305
6279.296875	-46.698395
6280.273438	-47.204121
6281.250000	-46.683372
6282.226562	-46.048107
6283.203125	-46.967106
6284.179688	-47.232281
6285.156250	-46.863041
6286.132812	-46.669899
6287.109375	-46.897968
6288.085938	-47.168274
6289.062500	-47.679146
6290.039062	-47.358662
6291.015625	-46.755718
6291.992188	-47.202522
6292.968750	-47.243248
6293.945312	-47.067627
6294.921875	-46.365753
6295.898438	-47.076946
6296.875000	-46.339043
6297.851562	-46.888870
6298.828125	-47.574406
6299.804688	-47.223209
6300.781250	-46.716530
6301.757812	-46.536293
6302.734375	-46.476250
6303.710938	-47.358788
6304.687500	-47.320351
6305.664062	-46.757412
6306.640625	-46.781250
6307.617188	-47.409412
6308.593750	-46.660896
6309.570312	-46.680542
6310.546875	-46.664551
6311.523438	-46.870754
6312.500000	-47.881111
6313.476562	-47.149643
6314.453125	-46.596321
6315.429688	-46.274887
6316.406250	-46.328133
6317.382812	-46.946556
6318.359375	-46.907330
6319.335938	-46.815861
6320.312500	-47.164597
6321.289062	-46.852535
6322.265625	-46.815319
6323.242188	-47.272064
6324.218750	-46.766575
6325.195312	-46.799442
6326.171875	-46.995846
6327.148438	-46.957661
6328.125000	-46.587227
6329.101562	-47.165272
6330.078125	-46.896473
6331.054688	-48.141888
6332.031250	-46.596794
6333.007812	-46.624313
6333.984375	-47.115093
6334.960938	-46.161724
6335.937500	-47.068966
6336.914062	-47.337948
6337.890625	-47.074657
6338.867188	-47.025936
6339.843750	-46.275459
6340.820312	-46.840435
6341.796875	-46.730438
6342.773438	-47.216785
6343.750000	-47.353077
6344.726562	-47.366829
6345.703125	-47.627407
6346.679688	-47.202648
6347.656250	-46.298489
6348.632812	-46.470108
6349.609375	-46.467182
6350.585938	-46.951885
6351.562500	-47.996780
6352.539062	-47.475769
6353.515625	-47.318810
6354.492188	-46.934368
6355.468750	-47.589127
6356.445312	-46.355175
6357.421875	-46.619019
6358.398438	-47.044979
6359.375000	-47.534073
6360.351562	-46.492813
6361.328125	-46.083759
6362.304688	-47.047192
6363.281250	-47.042667
6364.257812	-46.589088
6365.234375	-46.999271
6366.210938	-47.268173
6367.187500	-46.627026
6368.164062	-46.641243
6369.140625	-47.031395
6370.117188	-47.652496
6371.093750	-47.116543
6372.070312	-46.661087
6373.046875	-46.584938
6374.023438	-47.073418
6375.000000	-46.960125
6375.976562	-46.873020
6376.953125	-46.930916
6377.929688	-46.562584
6378.906250	-46.821983
6379.882812	-46.172283
6380.859375	-46.686153
6381.835938	-46.643223
6382.812500	-47.066563
6383.789062	-47.266064
6384.765625	-48.174500
6385.742188	-47.276527
6386.718750	-46.524097
6387.695312	-46.832481
6388.671875	-46.838966
6389.648438	-47.317234
6390.625000	-46.959694
6391.601562	-47.236000
6392.578125	-47.057747
6393.554688	-46.528164
6394.531250	-46.811413
6395.507812	-46.332741
6396.484375	-47.064346
6397.460938	-47.175797
6398.437500	-46.939358
6399.414062	-47.108994
6400.390625	-45.928650
6401.367188	-47.446697
6402.343750	-46.662556
6403.320312	-46.779800
6404.296875	-46.952160
6405.273438	-46.339298
6406.250000	-47.126080
6407.226562	-46.444679
6408.203125	-47.320545
6409.179688	-46.603409
6410.156250	-47.058189
6411.132812	-46.540352
6412.109375	-46.734386
6413.085938	-46.624798
6414.062500	-47.021278
6415.039062	-46.322945
6416.015625	-46.031166
6416.992188	-46.897507
6417.968750	-47.054913
6418.945312	-46.233414
6419.921875	-46.569576
6420.898438	-46.469170
6421.875000	-47.215500
6422.851562	-46.787727
6423.828125	-47.424313
6424.804688	-47.311516
6425.781250	-46.642838
6426.757812	-47.221947
6427.734375	-46.724754
6428.710938	-47.313858
6429.687500	-46.361607
6430.664062	-46.907703
6431.640625	-47.025356
6432.617188	-46.618191
6433.593750	-47.543446
6434.570312	-46.828533
6435.546875	-46.964157
6436.523438	-46.252319
6437.500000	-45.969116
6438.476562	-46.419605
6439.453125	-47.060314
6440.429688	-46.891594
6441.406250	-47.055866
6442.382812	-47.847797
6443.359375	-47.390240
6444.335938	-46.693119
6445.312500	-46.748047
6446.289062	-46.347267
6447.265625	-47.091911
6448.242188	-46.949505
6449.218750	-47.567871
6450.195312	-46.764271
6451.171875	-47.041748
6452.148438	-47.308315
6453.125000	-47.186432
6454.101562	-47.085819
6455.078125	-47.085815
6456.054688	-46.709755
6457.031250	-47.481815
6458.007812	-47.030266
6458.984375	-47.389278
6459.960938	-46.898678
6460.937500	-46.423737
6461.914062	-47.271488
6462.890625	-46.988964
6463.867188	-46.403179
6464.843750	-46.727093
6465.820312	-47.555836
6466.796875	-46.079903
6467.773438	-46.316124
6468.750000	-46.697887
6469.726562	-46.885975
6470.703125	-47.111256
6471.679688	-47.000229
6472.656250	-47.092037
6473.632812	-47.346813
6474.609375	-47.878792
6475.585938	-46.780594
6476.562500	-47.260529
6477.539062	-47.147831
6478.515625	-46.583763
6479.492188	-46.986214
6480.468750	-47.070816
6481.445312	-46.259895
6482.421875	-47.208504
6483.398438	-46.990543
6484.375000	-47.587456
6485.351562	-47.229813
6486.328125	-47.136150
6487.304688	-46.280083
6488.281250	-46.536629
6489.257812	-47.589077
6490.234375	-46.287235
6491.210938	-46.786438
6492.187500	-47.322350
6493.164062	-48.369495
6494.140625	-47.022812
6495.117188	-47.109989
6496.093750	-47.190464
6497.070312	-47.242733
6498.046875	-47.593521
6499.023438	-47.067860
6500.000000	-46.960735
6500.976562	-46.950691
6501.953125	-46.849224
6502.929688	-46.583221
6503.906250	-46.780495
6504.882812	-47.690479
6505.859375	-46.838760
6506.835938	-47.764534
6507.812500	-47.093681
6508.789062	-46.670456
6509.765625	-46.935158
6510.742188	-46.872921
6511.718750	-46.509029
6512.695312	-47.532635
6513.671875	-47.073536
6514.648438	-47.668556
6515.625000	-47.509590
6516.601562	-47.116959
6517.578125	-46.524044
6518.554688	-46.439709
6519.531250	-47.490772
6520.507812	-47.335075
6521.484375	-47.191811
6522.460938	-47.611477
6523.437500	-47.544739
6524.414062	-47.224712
6525.390625	-47.068645
6526.367188	-46.629284
6527.343750	-47.038120
6528.320312	-47.279121
6529.296875	-47.145531
6530.273438	-46.886185
6531.250000	-46.834080
6532.226562	-47.124912
6533.203125	-47.030231
6534.179688	-46.305511
6535.156250	-46.962067
6536.132812	-46.379669
6537.109375	-46.446873
6538.085938	-46.562336
6539.062500	-47.192326
6540.039062	-47.191833
6541.015625	-46.711426
6541.992188	-46.838657
6542.968750	-46.545372
6543.945312	-47.255680
6544.921875	-46.215389
6545.898438	-46.349506
6546.875000	-46.573410
6547.851562	-47.392609
6548.828125	-46.587280
6549.804688	-46.866920
6550.781250	-47.335960
6551.757812	-46.284966
6552.734375	-46.972054
6553.710938	-47.112221
6554.687500	-46.844910
6555.664062	-46.885387
6556.640625	-46.842133
6557.617188	-46.975048
6558.593750	-47.174294
6559.570312	-46.454906
6560.546875	-47.161613
6561.523438	-47.603649
6562.500000	-46.745445
6563.476562	-47.468307
6564.453125	-46.773018
6565.429688	-46.206917
6566.406250	-46.582932
6567.382812	-46.696728
6568.359375	-46.903259
6569.335938	-47.021755
6570.312500	-45.549698
6571.289062	-46.925430
6572.265625	-47.590038
6573.242188	-46.654900
6574.218750	-46.421219
6575.195312	-46.519936
6576.171875	-46.392639
6577.148438	-47.069805
6578.125000	-47.323502
6579.101562	-47.506985
6580.078125	-46.759876
6581.054688	-47.644066
6582.031250	-46.911678
6583.007812	-46.822464
6583.984375	-47.161846
6584.960938	-47.108925
6585.937500	-46.568600
6586.914062	-46.679722
6587.890625	-46.120770
6588.867188	-47.031891
6589.843750	-46.497402
6590.820312	-46.419121
6591.796875	-47.314552
6592.773438	-46.665333
6593.750000	-46.959396
6594.726562	-46.882423
6595.703125	-47.512909
6596.679688	-48.069378
6597.656250	-46.932545
6598.632812	-46.966194
6599.609375	-47.019550
6600.585938	-47.487576
6601.562500	-47.159733
6602.539062	-47.906315
6603.515625	-47.704285
6604.492188	-47.475632
6605.468750	-46.894634
6606.445312	-46.440887
6607.421875	-47.573895
6608.398438	-47.143730
6609.375000	-47.120155
6610.351562	-46.429108
6611.328125	-47.148022
6612.304688	-46.745571
6613.281250	-47.069740
6614.257812	-47.570869
6615.234375	-47.260597
6616.210938	-47.470634
6617.187500	-46.545609
6618.164062	-46.957508
6619.140625	-47.605244
6620.117188	-47.229679
6621.093750	-47.018642
6622.070312	-47.189350
6623.046875	-47.471878
6624.023438	-46.757439
6625.000000	-47.207249
6625.976562	-46.898773
6626.953125	-47.373806
6627.929688	-46.685493
6628.906250	-46.942844
6629.882812	-46.646362
6630.859375	-46.227356
6631.835938	-47.019257
6632.812500	-47.005173
6633.789062	-46.924931
6634.765625	-46.687099
6635.742188	-47.268063
6636.718750	-47.010738
6637.695312	-46.538094
6638.671875	-46.674118
6639.648438	-46.373859
6640.625000	-46.944572
6641.601562	-46.956867
6642.578125	-47.575657
6643.554688	-47.354095
6644.531250	-46.939941
6645.507812	-46.932652
6646.484375	-46.547855
6647.460938	-46.768429
6648.437500	-46.769852
6649.414062	-46.755779
6650.390625	-46.531944
6651.367188	-46.771832
6652.343750	-47.514168
6653.320312	-46.807083
6654.296875	-47.113770
6655.273438	-46.591782
6656.250000	-46.668850
6657.226562	-46.468716
6658.203125	-47.031380
6659.179688	-47.695721
6660.156250	-47.019394
6661.132812	-47.347202
6662.109375	-46.914467
6663.085938	-47.532818
6664.062500	-46.691227
6665.039062	-46.758560
6666.015625	-46.354591
6666.992188	-46.866142
6667.968750	-46.828865
6668.945312	-47.236191
6669.921875	-46.668781
6670.898438	-46.479202
6671.875000	-46.477993
6672.851562	-47.012959
6673.828125	-46.961384
6674.804688	-46.314987
6675.781250	-46.427971
6676.757812	-46.081150
6677.734375	-46.884922
6678.710938	-47.328281
6679.687500	-46.946312
6680.664062	-46.644386
6681.640625	-45.847267
6682.617188	-46.229458
6683.593750	-47.844921
6684.570312	-47.092102
6685.546875	-46.054680
6686.523438	-46.793388
6687.500000	-46.824829
6688.476562	-46.141613
6689.453125	-47.513996
6690.429688	-47.173687
6691.406250	-47.555099
6692.382812	-46.960331
6693.359375	-46.943874
6694.335938	-47.093254
6695.312500	-47.054047
6696.289062	-47.245235
6697.265625	-47.281139
6698.242188	-47.172596
6699.218750	-46.747562
6700.195312	-46.929703
6701.171875	-46.823681
6702.148438	-47.286118
6703.125000	-46.773903
6704.101562	-46.747520
6705.078125	-46.660461
6706.054688	-45.753571
6707.031250	-46.843445
6708.007812	-46.980988
6708.984375	-47.222576
6709.960938	-47.209476
6710.937500	-46.805519
6711.914062	-47.379604
6712.890625	-47.037235
6713.867188	-46.555470
6714.843750	-47.586349
6715.820312	-47.974140
6716.796875	-48.017109
6717.773438	-46.946144
6718.750000	-47.418839
6719.726562	-46.628479
6720.703125	-47.061913
6721.679688	-47.426025
6722.656250	-46.688576
6723.632812	-46.459549
6724.609375	-46.773594
6725.585938	-46.580521
6726.562500	-47.110199
6727.539062	-47.283173
6728.515625	-47.207939
6729.492188	-47.522186
6730.468750	-46.409058
6731.445312	-45.784626
6732.421875	-46.630302
6733.398438	-46.039944
6734.375000	-47.026276
6735.351562	-46.716747
6736.328125	-46.947506
6737.304688	-46.868347
6738.281250	-46.100857
6739.257812	-47.457359
6740.234375	-47.587639
6741.210938	-46.709209
6742.187500	-47.108707
6743.164062	-47.190575
6744.140625	-47.279202
6745.117188	-46.665108
6746.093750	-46.978584
6747.070312	-46.373814
6748.046875	-47.383381
6749.023438	-47.462086
6750.000000	-46.838066
6750.976562	-47.777508
6751.953125	-46.259121
6752.929688	-46.851086
6753.906250	-46.734390
6754.882812	-46.322300
6755.859375	-47.001427
6756.835938	-47.260868
6757.812500	-46.991554
6758.789062	-47.263763
6759.765625	-47.524555
6760.742188	-47.219032
6761.718750	-47.175785
6762.695312	-47.255711
6763.671875	-46.829674
6764.648438	-46.196056
6765.625000	-46.200569
6766.601562	-46.639847
6767.578125	-46.543228
6768.554688	-46.623543
6769.531250	-46.529564
6770.507812	-46.962643
6771.484375	-47.346622
6772.460938	-47.353573
6773.437500	-47.936188
6774.414062	-47.788315
6775.390625	-46.792210
6776.367188	-46.876598
6777.343750	-46.678101
6778.320312	-46.307560
6779.296875	-46.457401
6780.273438	-46.997883
6781.250000	-47.090981
6782.226562	-47.344460
6783.203125	-46.985992
6784.179688	-47.479256
6785.156250	-47.107597
6786.132812	-46.668327
6787.109375	-46.461708
6788.085938	-46.421322
6789.062500	-48.174694
6790.039062	-46.997772
6791.015625	-46.819969
6791.992188	-46.720535
6792.968750	-47.091812
6793.945312	-47.058979
6794.921875	-47.401730
6795.898438	-47.072697
6796.875000	-46.416729
6797.851562	-46.694618
6798.828125	-47.126705
6799.804688	-46.665028
6800.781250	-46.502781
6801.757812	-46.923424
6802.734375	-46.723469
6803.710938	-47.157623
6804.687500	-47.295807
6805.664062	-46.532158
6806.640625	-46.973034
6807.617188	-46.699764
6808.593750	-46.468288
6809.570312	-46.197647
6810.546875	-46.473564
6811.523438	-46.695202
6812.500000	-46.198612
6813.476562	-47.137272
6814.453125	-46.649990
6815.429688	-47.384399
6816.406250	-47.008286
6817.382812	-46.761353
6818.359375	-46.437622
6819.335938	-46.421158
6820.312500	-46.894707
6821.289062	-46.703224
6822.265625	-47.138920
6823.242188	-46.826309
6824.218750	-47.219479
6825.195312	-47.067081
6826.171875	-46.993664
6827.148438	-46.985458
6828.125000	-47.476025
6829.101562	-47.143017
6830.078125	-46.084511
6831.054688	-45.859966
6832.031250	-47.032047
6833.007812	-46.198776
6833.984375	-46.990150
6834.960938	-47.185532
6835.937500	-47.194016
6836.914062	-46.794346
6837.890625	-47.031185
6838.867188	-46.622631
6839.843750	-47.220364
6840.820312	-47.054138
6841.796875	-46.786469
6842.773438	-46.229397
6843.750000	-46.781940
6844.726562	-47.561550
6845.703125	-47.000465
6846.679688	-46.518204
6847.656250	-46.659149
6848.632812	-47.109200
6849.609375	-46.677486
6850.585938	-47.181454
6851.562500	-46.480576
6852.539062	-47.106140
6853.515625	-46.761467
6854.492188	-47.169289
6855.468750	-47.125786
6856.445312	-46.627216
6857.421875	-47.315895
6858.398438	-47.944092
6859.375000	-47.460823
6860.351562	-46.409794
6861.328125	-46.735683
6862.304688	-46.625103
6863.281250	-46.461521
6864.257812	-47.048557
6865.234375	-47.570942
6866.210938	-47.127522
6867.187500	-47.474998
6868.164062	-46.812485
6869.140625	-47.129551
6870.117188	-46.638252
6871.093750	-47.310825
6872.070312	-46.581757
6873.046875	-46.967873
6874.023438	-47.528454
6875.000000	-47.553699
6875.976562	-46.753151
6876.953125	-46.745804
6877.929688	-47.766602
6878.906250	-46.699074
6879.882812	-46.451561
6880.859375	-45.637817
6881.835938	-46.699226
6882.812500	-47.618618
6883.789062	-47.444714
6884.765625	-47.163315
6885.742188	-46.994045
6886.718750	-47.433773
6887.695312	-46.644211
6888.671875	-46.437073
6889.648438	-47.035751
6890.625000	-46.886990
6891.601562	-46.815552
6892.578125	-46.868458
6893.554688	-46.399593
6894.531250	-46.622711
6895.507812	-46.801762
6896.484375	-47.113853
6897.460938	-46.443874
6898.437500	-47.074875
6899.414062	-46.459721
6900.390625	-46.306919
6901.367188	-46.037323
6902.343750	-46.902763
6903.320312	-46.897057
6904.296875	-47.574562
6905.273438	-47.112347
6906.250000	-46.563671
6907.226562	-45.869644
6908.203125	-46.867523
6909.179688	-46.794941
6910.156250	-46.126724
6911.132812	-46.576180
6912.109375	-46.424362
6913.085938	-46.910332
6914.062500	-46.884499
6915.039062	-46.524769
6916.015625	-46.913078
6916.992188	-46.997379
6917.968750	-46.670399
6918.945312	-46.990227
6919.921875	-47.354393
6920.898438	-47.088486
6921.875000	-47.036617
6922.851562	-47.693241
6923.828125	-47.069798
6924.804688	-46.709682
6925.781250	-46.949112
6926.757812	-46.960716
6927.734375	-46.616161
6928.710938	-46.587368
6929.687500	-46.875866
6930.664062	-47.860615
6931.640625	-46.868706
6932.617188	-47.235634
6933.593750	-47.415962
6934.570312	-47.349491
6935.546875	-46.230003
6936.523438	-47.629017
6937.500000	-47.477234
6938.476562	-47.253349
6939.453125	-46.447346
6940.429688	-46.731480
6941.406250	-47.195423
6942.382812	-47.031834
6943.359375	-46.796574
6944.335938	-47.542309
6945.312500	-46.966091
6946.289062	-47.110008
6947.265625	-47.101032
6948.242188	-46.283379
6949.218750	-47.278252
6950.195312	-46.174294
6951.171875	-46.659801
6952.148438	-47.074230
6953.125000	-47.948467
6954.101562	-46.240475
6955.078125	-47.138847
6956.054688	-47.120850
6957.031250	-47.409210
6958.007812	-47.558235
6958.984375	-47.460190
6959.960938	-47.273705
6960.937500	-47.016014
6961.914062	-47.273888
6962.890625	-46.428627
6963.867188	-46.808323
6964.843750	-47.520313
6965.820312	-47.628170
6966.796875	-46.982723
6967.773438	-46.863670
6968.750000	-46.478943
6969.726562	-47.020489
6970.703125	-47.153610
6971.679688	-47.067036
6972.656250	-46.649334
6973.632812	-47.119419
6974.609375	-47.052387
6975.585938	-47.202690
6976.562500	-46.142563
6977.539062	-47.221912
6978.515625	-46.662060
6979.492188	-47.140499
6980.468750	-46.483803
6981.445312	-46.600098
6982.421875	-47.763142
6983.398438	-47.217522
6984.375000	-46.832214
6985.351562	-46.930176
6986.328125	-47.579002
6987.304688	-47.026184
6988.281250	-47.384060
6989.257812	-47.582619
6990.234375	-46.694817
6991.210938	-46.713596
6992.187500	-47.120338
6993.164062	-46.767139
6994.140625	-46.480820
6995.117188	-46.827419
6996.093750	-46.565567
6997.070312	-46.858658
6998.046875	-47.100418
6999.023438	-46.821327
7000.000000	-46.736370
7000.976562	-46.056225
7001.953125	-47.633881
7002.929688	-46.869205
7003.906250	-46.908932
7004.882812	-46.940521
7005.859375	-46.575287
7006.835938	-46.850033
7007.812500	-47.069458
7008.789062	-47.261246
7009.765625	-47.009007
7010.742188	-47.235390
7011.718750	-47.380898
7012.695312	-46.705070
7013.671875	-46.965717
7014.648438	-46.865902
7015.625000	-46.819462
7016.601562	-48.258263
7017.578125	-46.422005
7018.554688	-46.974579
7019.531250	-47.547390
7020.507812	-46.927715
7021.484375	-47.083958
7022.460938	-46.519264
7023.437500	-47.416279
7024.414062	-46.872627
7025.390625	-47.549828
7026.367188	-47.404991
7027.343750	-46.339531
7028.320312	-47.266823
7029.296875	-47.072044
7030.273438	-47.381222
7031.250000	-46.989700
7032.226562	-46.951302
7033.203125	-46.796104
7034.179688	-46.721191
7035.156250	-46.468639
7036.132812	-46.956841
7037.109375	-46.974106
7038.085938	-46.941456
7039.062500	-47.136677
7040.039062	-47.444702
7041.015625	-47.130753
7041.992188	-46.953270
7042.968750	-46.390625
7043.945312	-45.890774
7044.921875	-47.366875
7045.898438	-47.051151
7046.875000	-47.069458
7047.851562	-47.012249
7048.828125	-47.142975
7049.804688	-45.925934
7050.781250	-47.580376
7051.757812	-46.981335
7052.734375	-46.943367
7053.710938	-47.219391
7054.687500	-46.761765
7055.664062	-47.605686
7056.640625	-47.310364
7057.617188	-46.235104
7058.593750	-46.979397
7059.570312	-47.100708
7060.546875	-46.715160
7061.523438	-47.271523
7062.500000	-47.007881
7063.476562	-46.589287
7064.453125	-46.272079
7065.429688	-46.804470
7066.406250	-47.514210
7067.382812	-46.828331
7068.359375	-46.373230
7069.335938	-46.591587
7070.312500	-46.836094
7071.289062	-46.534309
7072.265625	-47.367687
7073.242188	-47.771759
7074.218750	-46.669060
7075.195312	-47.024731
7076.171875	-46.803059
7077.148438	-47.769672
7078.125000	-47.000217
7079.101562	-46.754448
7080.078125	-46.355076
7081.054688	-47.373493
7082.031250	-46.551800
7083.007812	-46.767548
7083.984375	-46.112118
7084.960938	-46.588486
7085.937500	-46.691929
7086.914062	-46.734005
7087.890625	-47.110733
7088.867188	-47.215755
7089.843750	-47.142769
7090.820312	-46.893425
7091.796875	-47.091496
7092.773438	-47.181835
7093.750000	-47.416840
7094.726562	-47.769737
7095.703125	-46.798431
7096.679688	-46.860329
7097.656250	-46.715530
7098.632812	-46.711288
7099.609375	-46.578163
7100.585938	-47.542923
7101.562500	-47.031155
7102.539062	-46.804256
7103.515625	-47.308067
7104.492188	-47.032032
7105.468750	-46.835938
7106.445312	-46.936035
7107.421875	-47.282936
7108.398438	-47.114132
7109.375000	-46.755093
7110.351562	-46.247967
7111.328125	-46.243065
7112.304688	-48.021828
7113.281250	-47.152290
7114.257812	-46.575245
7115.234375	-47.233395
7116.210938	-47.074696
7117.187500	-46.773605
7118.164062	-46.258118
7119.140625	-47.561272
7120.117188	-47.131218
7121.093750	-47.216095
7122.070312	-47.252769
7123.046875	-47.718933
7124.023438	-47.598328
7125.000000	-45.922035
7125.976562	-46.137154
7126.953125	-47.205811
7127.929688	-47.210953
7128.906250	-47.480576
7129.882812	-47.151455
7130.859375	-47.320679
7131.835938	-46.922974
7132.812500	-46.580254
7133.789062	-47.192116
7134.765625	-46.420925
7135.742188	-47.493034
7136.718750	-47.545387
7137.695312	-47.687862
7138.671875	-46.605927
7139.648438	-46.177982
7140.625000	-47.481869
7141.601562	-47.325253
7142.578125	-47.101704
7143.554688	-48.116920
7144.531250	-47.003056
7145.507812	-47.038433
7146.484375	-46.558578
7147.460938	-47.275681
7148.437500	-46.701931
7149.414062	-47.461906
7150.390625	-46.601418
7151.367188	-46.869789
7152.343750	-46.711323
7153.320312	-46.583855
7154.296875	-47.377384
7155.273438	-46.487370
7156.250000	-47.067158
7157.226562	-47.040424
7158.203125	-46.588455
7159.179688	-47.232235
7160.156250	-47.028347
7161.132812	-46.735359
7162.109375	-47.146805
7163.085938	-47.221348
7164.062500	-47.304573
7165.039062	-46.544987
7166.015625	-47.164856
7166.992188	-46.924889
7167.968750	-46.818657
7168.945312	-47.197601
7169.921875	-46.813477
7170.898438	-46.003822
7171.875000	-47.518456
7172.851562	-46.587299
7173.828125	-47.293201
7174.804688	-46.670822
7175.781250	-47.512165
7176.757812	-47.919209
7177.734375	-47.338947
7178.710938	-47.433826
7179.687500	-46.764675
7180.664062	-47.311600
7181.640625	-46.882023
7182.617188	-46.761272
7183.593750	-47.401623
7184.570312	-46.599579
7185.546875	-47.292740
7186.523438	-47.310791
7187.500000	-47.288586
7188.476562	-46.942566
7189.453125	-46.462383
7190.429688	-47.891251
7191.406250	-46.959023
7192.382812	-46.331932
7193.359375	-46.874886
7194.335938	-47.394478
7195.312500	-47.065647
7196.289062	-47.189537
7197.265625	-46.870686
7198.242188	-46.841976
7199.218750	-46.725548
7200.195312	-46.735535
7201.171875	-46.728054
7202.148438	-47.064964
7203.125000	-47.106724
7204.101562	-47.512093
7205.078125	-47.248974
7206.054688	-46.587704
7207.031250	-46.644371
7208.007812	-47.095215
7208.984375	-46.397980
7209.960938	-47.101589
7210.937500	-47.117466
7211.914062	-47.232159
7212.890625	-46.808990
7213.867188	-47.889626
7214.843750	-46.733131
7215.820312	-46.556992
7216.796875	-46.498539
7217.773438	-46.783089
7218.750000	-47.333714
7219.726562	-47.244350
7220.703125	-47.955833
7221.679688	-45.931168
7222.656250	-46.998188
7223.632812	-47.001026
7224.609375	-47.026817
7225.585938	-47.339329
7226.562500	-46.688797
7227.539062	-46.471680
7228.515625	-47.116833
7229.492188	-47.528179
7230.468750	-47.326351
7231.445312	-47.661850
7232.421875	-47.374943
7233.398438	-46.295361
7234.375000	-46.546738
7235.351562	-47.024830
7236.328125	-46.691654
7237.304688	-46.693764
7238.281250	-46.844597
7239.257812	-46.459663
7240.234375	-47.129726
7241.210938	-46.627453
7242.187500	-46.975143
7243.164062	-46.450996
7244.140625	-46.758308
7245.117188	-46.465611
7246.093750	-46.084900
7247.070312	-46.126801
7248.046875	-47.381657
7249.023438	-46.657665
7250.000000	-46.536465
7250.976562	-46.911842
7251.953125	-47.111946
7252.929688	-46.445496
7253.906250	-47.091343
7254.882812	-47.179966
7255.859375	-47.450485
7256.835938	-46.259037
7257.812500	-46.724911
7258.789062	-47.340984
7259.765625	-46.960270
7260.742188	-46.589851
7261.718750	-45.787792
7262.695312	-46.440895
7263.671875	-47.487797
7264.648438	-47.101536
7265.625000	-47.511684
7266.601562	-46.955208
7267.578125	-45.981373
7268.554688	-47.078892
7269.531250	-47.032722
7270.507812	-47.035076
7271.484375	-46.583408
7272.460938	-46.940285
7273.437500	-47.118019
7274.414062	-47.064190
7275.390625	-47.604248
7276.367188	-47.524723
7277.343750	-46.877922
7278.320312	-46.150642
7279.296875	-46.628151
7280.273438	-46.363586
7281.250000	-47.002548
7282.226562	-46.822144
7283.203125	-46.867054
7284.179688	-47.174313
7285.156250	-47.330116
7286.132812	-47.282906
7287.109375	-46.508865
7288.085938	-47.213512
7289.062500	-47.127872
7290.039062	-47.347225
7291.015625	-47.741032
7291.992188	-47.094257
7292.968750	-47.294537
7293.945312	-47.530895
7294.921875	-47.662094
7295.898438	-46.972191
7296.875000	-47.325279
7297.851562	-47.238876
7298.828125	-46.765167
7299.804688	-47.301933
7300.781250	-47.546886
7301.757812	-46.932079
7302.734375	-47.462685
7303.710938	-47.648880
7304.687500	-47.313004
7305.664062	-46.675419
7306.640625	-47.585018
7307.617188	-47.498188
7308.593750	-46.754726
7309.570312	-47.061981
7310.546875	-46.904358
7311.523438	-47.325134
7312.500000	-47.211777
7313.476562	-46.967087
7314.453125	-47.655121
7315.429688	-47.659134
7316.406250	-46.937878
7317.382812	-46.458683
7318.359375	-46.684566
7319.335938	-46.836628
7320.312500	-46.721466
7321.289062	-46.564999
7322.265625	-46.804531
7323.242188	-46.862732
7324.218750	-46.595211
7325.195312	-46.255623
7326.171875	-46.792835
7327.148438	-47.257721
7328.125000	-46.717751
7329.101562	-46.711090
7330.078125	-46.597084
7331.054688	-47.035591
7332.031250	-46.652874
7333.007812	-46.754459
7333.984375	-46.744251
7334.960938	-46.391857
7335.937500	-46.177025
7336.914062	-46.533222
7337.890625	-46.879021
7338.867188	-46.752563
7339.843750	-46.744076
7340.820312	-46.923206
7341.796875	-47.258701
7342.773438	-46.139477
7343.750000	-46.984528
7344.726562	-46.796371
7345.703125	-47.646873
7346.679688	-47.132393
7347.656250	-47.208382
7348.632812	-46.660210
7349.609375	-47.376247
7350.585938	-46.803112
7351.562500	-46.672489
7352.539062	-46.460030
7353.515625	-46.159016
7354.492188	-47.024696
7355.468750	-46.721138
7356.445312	-47.136990
7357.421875	-46.977913
7358.398438	-47.146931
7359.375000	-46.846333
7360.351562	-46.847073
7361.328125	-46.919991
7362.304688	-46.661270
7363.281250	-46.825710
7364.257812	-46.364315
7365.234375	-47.502110
7366.210938	-47.192226
7367.187500	-48.239063
7368.164062	-47.154751
7369.140625	-46.888512
7370.117188	-46.733898
7371.093750	-46.970478
7372.070312	-46.648178
7373.046875	-46.924416
7374.023438	-46.305210
7375.000000	-46.393532
7375.976562	-47.647591
7376.953125	-46.531116
7377.929688	-46.608078
7378.906250	-47.867378
7379.882812	-46.812145
7380.859375	-46.434025
7381.835938	-47.060883
7382.812500	-46.774776
7383.789062	-46.485184
7384.765625	-46.687531
7385.742188	-46.823040
7386.718750	-47.589172
7387.695312	-47.211788
7388.671875	-46.736122
7389.648438	-46.703865
7390.625000	-47.080853
7391.601562	-46.470951
7392.578125	-46.927723
7393.554688	-47.057247
7394.531250	-47.300835
7395.507812	-47.789413
7396.484375	-47.110050
7397.460938	-46.981815
7398.437500	-46.377758
7399.414062	-47.550724
7400.390625	-46.996510
7401.367188	-47.368328
7402.343750	-47.223198
7403.320312	-47.421715
7404.296875	-47.456245
7405.273438	-46.747707
7406.250000	-46.451408
7407.226562	-47.490974
7408.203125	-47.611984
7409.179688	-47.343830
7410.156250	-47.037243
7411.132812	-46.352024
7412.109375	-46.690876
7413.085938	-47.297344
7414.062500	-46.241791
7415.039062	-46.843582
7416.015625	-46.847176
7416.992188	-46.381142
7417.968750	-46.833878
7418.945312	-46.907417
7419.921875	-46.798355
7420.898438	-46.393135
7421.875000	-47.804680
7422.851562	-47.542671
7423.828125	-47.003372
7424.804688	-47.048317
7425.781250	-46.637104
7426.757812	-46.876133
7427.734375	-47.078014
7428.710938	-46.801407
7429.687500	-46.814598
7430.664062	-47.604103
7431.640625	-46.796494
7432.617188	-47.518509
7433.593750	-47.546677
7434.570312	-46.117893
7435.546875	-47.177967
7436.523438	-46.395981
7437.500000	-46.451942
7438.476562	-47.104462
7439.453125	-47.249344
7440.429688	-47.132446
7441.406250	-47.577290
7442.382812	-47.746822
7443.359375	-46.922127
7444.335938	-46.533207
7445.312500	-45.729214
7446.289062	-46.149452
7447.265625	-47.188503
7448.242188	-46.940315
7449.218750	-46.299473
7450.195312	-46.724621
7451.171875	-46.804092
7452.148438	-45.845242
7453.125000	-47.373814
7454.101562	-46.730579
7455.078125	-46.275421
7456.054688	-46.607239
7457.031250	-46.136719
7458.007812	-46.032562
7458.984375	-47.086441
7459.960938	-46.774891
7460.937500	-46.952770
7461.914062	-46.740623
7462.890625	-46.916790
7463.867188	-46.018646
7464.843750	-47.116131
7465.820312	-47.501675
7466.796875	-46.300037
7467.773438	-46.983582
7468.750000	-47.096310
7469.726562	-46.289379
7470.703125	-46.473858
7471.679688	-46.853329
7472.656250	-47.247623
7473.632812	-47.343845
7474.609375	-47.030819
7475.585938	-47.192932
7476.562500	-46.732857
7477.539062	-47.459705
7478.515625	-46.793865
7479.492188	-46.803181
7480.468750	-47.189720
7481.445312	-47.367153
7482.421875	-47.681244
7483.398438	-47.569084
7484.375000	-47.542950
7485.351562	-47.182842
7486.328125	-47.199928
7487.304688	-46.952984
7488.281250	-45.969265
7489.257812	-47.127796
7490.234375	-46.833561
7491.210938	-47.068916
7492.187500	-46.901314
7493.164062	-46.747841
7494.140625	-47.205002
7495.117188	-46.459137
7496.093750	-47.649414
7497.070312	-47.307995
7498.046875	-47.171494
7499.023438	-47.160892
7500.000000	-46.639008
7500.976562	-46.738430
7501.953125	-46.553852
7502.929688	-47.040516
7503.906250	-46.994392
7504.882812	-46.446449
7505.859375	-46.881546
7506.835938	-46.497097
7507.812500	-47.383659
7508.789062	-46.873901
7509.765625	-47.335800
7510.742188	-46.737892
7511.718750	-46.193089
7512.695312	-47.078884
7513.671875	-46.837559
7514.648438	-46.627331
7515.625000	-46.741451
7516.601562	-47.111275
7517.578125	-46.734158
7518.554688	-47.122437
7519.531250	-47.443729
7520.507812	-47.322182
7521.484375	-47.150608
7522.460938	-47.135136
7523.437500	-46.942574
7524.414062	-46.922623
7525.390625	-47.774311
7526.367188	-46.802834
7527.343750	-47.416374
7528.320312	-46.914928
7529.296875	-48.197815
7530.273438	-47.676785
7531.250000	-47.117363
7532.226562	-47.698658
7533.203125	-46.949158
7534.179688	-46.934151
7535.156250	-47.241299
7536.132812	-46.588131
7537.109375	-47.195625
7538.085938	-47.279781
7539.062500	-46.471386
7540.039062	-47.110062
7541.015625	-46.896091
7541.992188	-46.684204
7542.968750	-47.167679
7543.945312	-47.534603
7544.921875	-47.092155
7545.898438	-46.652161
7546.875000	-46.809906
7547.851562	-46.732445
7548.828125	-46.562305
7549.804688	-46.906082
7550.781250	-47.200302
7551.757812	-46.842720
7552.734375	-47.022797
7553.710938	-46.925472
7554.687500	-47.295101
7555.664062	-46.777592
7556.640625	-46.571106
7557.617188	-46.456989
7558.593750	-47.399727
7559.570312	-46.605701
7560.546875	-46.791862
7561.523438	-46.965771
7562.500000	-46.526489
7563.476562	-46.476597
7564.453125	-47.071835
7565.429688	-47.244850
7566.406250	-47.293217
7567.382812	-46.729965
7568.359375	-47.026539
7569.335938	-47.132305
7570.312500	-46.905155
7571.289062	-47.024017
7572.265625	-47.471317
7573.242188	-46.936069
7574.218750	-46.900436
7575.195312	-47.092190
7576.171875	-47.247616
7577.148438	-47.359962
7578.125000	-47.309696
7579.101562	-47.075760
7580.078125	-47.554909
7581.054688	-46.798393
7582.031250	-46.880337
7583.007812	-47.383247
7583.984375	-46.711704
7584.960938	-46.902466
7585.937500	-46.725693
7586.914062	-47.697948
7587.890625	-47.494331
7588.867188	-47.569725
7589.843750	-46.912880
7590.820312	-46.880421
7591.796875	-46.976292
7592.773438	-46.841812
7593.750000	-46.655106
7594.726562	-47.124870
7595.703125	-46.349926
7596.679688	-47.631207
7597.656250	-46.703182
7598.632812	-47.110607
7599.609375	-46.875340
7600.585938	-46.838402
7601.562500	-47.446503
7602.539062	-46.683582
7603.515625	-47.756062
7604.492188	-48.150372
7605.468750	-46.852947
7606.445312	-47.153381
7607.421875	-47.072437
7608.398438	-46.980793
7609.375000	-47.441555
7610.351562	-47.186016
7611.328125	-47.029732
7612.304688	-46.887127
7613.281250	-46.884796
7614.257812	-47.857170
7615.234375	-47.082211
7616.210938	-46.486202
7617.187500	-47.925335
7618.164062	-47.041210
7619.140625	-46.453262
7620.117188	-46.825699
7621.093750	-47.401550
7622.070312	-46.625252
7623.046875	-46.878857
7624.023438	-48.248260
7625.000000	-47.286991
7625.976562	-47.122620
7626.953125	-46.443142
7627.929688	-47.142376
7628.906250	-46.686661
7629.882812	-46.848591
7630.859375	-46.999245
7631.835938	-46.799320
7632.812500	-47.656422
7633.789062	-46.868530
7634.765625	-47.285988
7635.742188	-46.737000
7636.718750	-46.554516
7637.695312	-46.660358
7638.671875	-46.461121
7639.648438	-46.631554
7640.625000	-46.954540
7641.601562	-46.647949
7642.578125	-46.290890
7643.554688	-46.901344
7644.531250	-46.599377
7645.507812	-47.101471
7646.484375	-46.938000
7647.460938	-46.435604
7648.437500	-46.866768
7649.414062	-46.681404
7650.390625	-47.045338
7651.367188	-46.696667
7652.343750	-47.566017
7653.320312	-47.058895
7654.296875	-46.393127
7655.273438	-46.542164
7656.250000	-47.465343
7657.226562	-46.884201
7658.203125	-47.561108
7659.179688	-46.699753
7660.156250	-47.306423
7661.132812	-46.818977
7662.109375	-47.633568
7663.085938	-46.580463
7664.062500	-46.746735
7665.039062	-47.976871
7666.015625	-47.183750
7666.992188	-46.457462
7667.968750	-46.863327
7668.945312	-46.976311
7669.921875	-47.471310
7670.898438	-46.577560
7671.875000	-47.001366
7672.851562	-47.791267
7673.828125	-48.064308
7674.804688	-46.746593
7675.781250	-46.484074
7676.757812	-47.127087
7677.734375	-47.240761
7678.710938	-46.639256
7679.687500	-46.764549
7680.664062	-46.734585
7681.640625	-46.562027
7682.617188	-47.328903
7683.593750	-47.263893
7684.570312	-46.887119
7685.546875	-46.948189
7686.523438	-45.972649
7687.500000	-47.364834
7688.476562	-47.303574
7689.453125	-47.030094
7690.429688	-47.159657
7691.406250	-46.817421
7692.382812	-47.568115
7693.359375	-47.613564
7694.335938	-47.274731
7695.312500	-46.551128
7696.289062	-46.901180
7697.265625	-45.836376
7698.242188	-46.478958
7699.218750	-47.077488
7700.195312	-46.313972
7701.171875	-47.297817
7702.148438	-46.908314
7703.125000	-46.735130
7704.101562	-46.698643
7705.078125	-46.972542
7706.054688	-46.647743
7707.031250	-47.326675
7708.007812	-46.864143
7708.984375	-47.635597
7709.960938	-47.363602
7710.937500	-46.870167
7711.914062	-46.635136
7712.890625	-47.406296
7713.867188	-47.042912
7714.843750	-46.862408
7715.820312	-47.157063
7716.796875	-47.419884
7717.773438	-46.967495
7718.750000	-46.518852
7719.726562	-46.093483
7720.703125	-46.604336
7721.679688	-46.621086
7722.656250	-46.536430
7723.632812	-47.197941
7724.609375	-46.991306
7725.585938	-46.247791
7726.562500	-47.032085
7727.539062	-47.410599
7728.515625	-47.136200
7729.492188	-46.965858
7730.468750	-46.706257
7731.445312	-46.414890
7732.421875	-47.329704
7733.398438	-46.997059
7734.375000	-47.727116
7735.351562	-47.774059
7736.328125	-47.485062
7737.304688	-46.925957
7738.281250	-46.985863
7739.257812	-46.921467
7740.234375	-46.345573
7741.210938	-46.772148
7742.187500	-46.369251
7743.164062	-46.647282
7744.140625	-47.739857
7745.117188	-46.668976
7746.093750	-46.974823
7747.070312	-45.912743
7748.046875	-47.048553
7749.023438	-47.072289
7750.000000	-47.045006
7750.976562	-46.397224
7751.953125	-47.178864
7752.929688	-46.940212
7753.906250	-46.751808
7754.882812	-47.990837
7755.859375	-47.136589
7756.835938	-46.764973
7757.812500	-47.167076
7758.789062	-46.917278
7759.765625	-47.078842
7760.742188	-46.806389
7761.718750	-46.624825
7762.695312	-46.580009
7763.671875	-46.735283
7764.648438	-47.092690
7765.625000	-46.731747
7766.601562	-46.485073
7767.578125	-46.386944
7768.554688	-46.719990
7769.531250	-46.480595
7770.507812	-46.631840
7771.484375	-47.085587
7772.460938	-47.683098
7773.437500	-47.615063
7774.414062	-46.853359
7775.390625	-47.777489
7776.367188	-47.520790
7777.343750	-46.997517
7778.320312	-47.867863
7779.296875	-46.437504
7780.273438	-46.717384
7781.250000	-46.881287
7782.226562	-47.057449
7783.203125	-46.984020
7784.179688	-47.044670
7785.156250	-48.083954
7786.132812	-47.159569
7787.109375	-46.533600
7788.085938	-47.285419
7789.062500	-47.362656
7790.039062	-46.284061
7791.015625	-47.017185
7791.992188	-46.495968
7792.968750	-47.038044
7793.945312	-46.131824
7794.921875	-47.338482
7795.898438	-47.281643
7796.875000	-46.512497
7797.851562	-47.089500
7798.828125	-46.893906
7799.804688	-46.616207
7800.781250	-46.208416
7801.757812	-46.733112
7802.734375	-46.334538
7803.710938	-46.982838
7804.687500	-47.247868
7805.664062	-46.882027
7806.640625	-47.735119
7807.617188	-46.831890
7808.593750	-47.137054
7809.570312	-47.050472
7810.546875	-46.818752
7811.523438	-47.473904
7812.500000	-47.094875
7813.476562	-47.446354
7814.453125	-46.941322
7815.429688	-46.853657
7816.406250	-46.851501
7817.382812	-46.354061
7818.359375	-46.557171
7819.335938	-47.220573
7820.312500	-46.899712
7821.289062	-47.057011
7822.265625	-47.620029
7823.242188	-47.244965
7824.218750	-47.630352
7825.195312	-46.992973
7826.171875	-46.897919
7827.148438	-47.607559
7828.125000	-46.188622
7829.101562	-46.611214
7830.078125	-46.154358
7831.054688	-47.016438
7832.031250	-47.042084
7833.007812	-47.148430
7833.984375	-47.490215
7834.960938	-47.280140
7835.937500	-47.853371
7836.914062	-46.693069
7837.890625	-46.521736
7838.867188	-46.404026
7839.843750	-46.817295
7840.820312	-46.527081
7841.796875	-46.801167
7842.773438	-46.647800
7843.750000	-46.630707
7844.726562	-46.433117
7845.703125	-47.620117
7846.679688	-47.088039
7847.656250	-46.928246
7848.632812	-47.551781
7849.609375	-46.227962
7850.585938	-46.485004
7851.562500	-46.698330
7852.539062	-47.463894
7853.515625	-47.362892
7854.492188	-47.152462
7855.468750	-46.774483
7856.445312	-46.447628
7857.421875	-46.526051
7858.398438	-47.562859
7859.375000	-46.669727
7860.351562	-46.358624
7861.328125	-47.083420
7862.304688	-47.558548
7863.281250	-46.762161
7864.257812	-46.834461
7865.234375	-46.900970
7866.210938	-47.229603
7867.187500	-46.662148
7868.164062	-46.999790
7869.140625	-47.160236
7870.117188	-46.821995
7871.093750	-47.084694
7872.070312	-46.803902
7873.046875	-46.906170
7874.023438	-47.347462
7875.000000	-47.447021
7875.976562	-47.025696
7876.953125	-46.573139
7877.929688	-47.262451
7878.906250	-46.563587
7879.882812	-46.766052
7880.859375	-47.762676
7881.835938	-46.203079
7882.812500	-46.835522
7883.789062	-47.645092
7884.765625	-47.017639
7885.742188	-46.447407
7886.718750	-46.277588
7887.695312	-47.358543
7888.671875	-47.178261
7889.648438	-46.822124
7890.625000	-46.861347
7891.601562	-46.334473
7892.578125	-47.561028
7893.554688	-47.097031
7894.531250	-47.033955
7895.507812	-46.677822
7896.484375	-46.976006
7897.460938	-46.477974
7898.437500	-46.725632
7899.414062	-47.006565
7900.390625	-46.401371
7901.367188	-46.485607
7902.343750	-46.637798
7903.320312	-47.005421
7904.296875	-46.275345
7905.273438	-46.760296
7906.250000	-46.877354
7907.226562	-47.283836
7908.203125	-47.457203
7909.179688	-46.603676
7910.156250	-47.050758
7911.132812	-46.745262
7912.109375	-47.035370
7913.085938	-46.739941
7914.062500	-46.657253
7915.039062	-47.037083
7916.015625	-47.215672
7916.992188	-45.994644
7917.968750	-46.916836
7918.945312	-46.518921
7919.921875	-46.854855
7920.898438	-46.800297
7921.875000	-45.546375
7922.851562	-46.705502
7923.828125	-46.408600
7924.804688	-46.535751
7925.781250	-46.934330
7926.757812	-46.592224
7927.734375	-47.384529
7928.710938	-46.767361
7929.687500	-47.196320
7930.664062	-47.463905
7931.640625	-47.210472
7932.617188	-47.410034
7933.593750	-46.940609
7934.570312	-47.018013
7935.546875	-46.739178
7936.523438	-46.574524
7937.500000	-46.060173
7938.476562	-47.651691
7939.453125	-47.059940
7940.429688	-46.717930
7941.406250	-46.396992
7942.382812	-46.621788
7943.359375	-47.225754
7944.335938	-46.573311
7945.312500	-46.641254
7946.289062	-46.636841
7947.265625	-47.284218
7948.242188	-47.732330
7949.218750	-46.746574
7950.195312	-46.922993
7951.171875	-48.075279
7952.148438	-46.791599
7953.125000	-46.614346
7954.101562	-46.409847
7955.078125	-46.717449
7956.054688	-46.647705
7957.031250	-46.678936
7958.007812	-47.083038
7958.984375	-46.936203
7959.960938	-46.486534
7960.937500	-47.153194
7961.914062	-47.004646
7962.890625	-47.107918
7963.867188	-46.888580
7964.843750	-47.403755
7965.820312	-47.421455
7966.796875	-46.726055
7967.773438	-47.039631
7968.750000	-47.934093
7969.726562	-46.382023
7970.703125	-47.106472
7971.679688	-47.013847
7972.656250	-46.992901
7973.632812	-47.596283
7974.609375	-46.695763
7975.585938	-47.222107
7976.562500	-46.702618
7977.539062	-47.665062
7978.515625	-46.773678
7979.492188	-47.575981
7980.468750	-46.578560
7981.445312	-47.346851
7982.421875	-47.445255
7983.398438	-46.639446
7984.375000	-46.778881
7985.351562	-46.880585
7986.328125	-47.282017
7987.304688	-47.304043
7988.281250	-47.353683
7989.257812	-47.220890
7990.234375	-46.723804
7991.210938	-47.189487
7992.187500	-47.065964
7993.164062	-46.685383
7994.140625	-46.763336
7995.117188	-46.473297
7996.093750	-47.344028
7997.070312	-47.456047
7998.046875	-47.201714
7999.023438	-46.772961
